timestamps,TP9,AF7,AF8,TP10,Secondary Timestamp (Base),Secondary Timestamp (Remainder)
671179.623,126.953,-455.566,-33.691,35.645,671179.625,-0.015
671179.627,12.695,-403.809,-31.738,18.555,671179.625,-0.011
671179.631,18.066,-609.863,-28.809,26.855,671179.625,-0.007
671179.635,116.211,-422.363,-33.203,39.062,671179.625,-0.003
671179.639,116.211,-390.625,-35.645,37.598,671179.625,0.001
671179.643,8.301,-704.590,-34.180,22.949,671179.625,0.005
671179.647,-17.578,-853.516,-31.738,18.066,671179.625,0.009
671179.651,87.402,-940.918,-23.438,56.152,671179.625,0.013
671179.655,146.973,-799.805,-25.879,59.570,671179.625,0.017
671179.659,76.172,-458.984,-35.156,25.879,671179.625,0.021
671179.662,22.461,-376.465,-34.668,25.879,671179.625,0.024
671179.666,89.355,-446.289,-25.391,46.387,671179.625,0.028
671179.670,157.227,-659.668,-24.414,68.848,671179.688,0.003
671179.674,100.586,-692.383,-23.926,68.848,671179.688,0.007
671179.678,3.418,-639.648,-19.043,47.852,671179.688,0.011
671179.682,35.645,-444.336,-16.113,45.898,671179.688,0.015
671179.686,122.559,-353.516,-16.113,72.754,671179.688,0.019
671179.690,110.840,-761.719,-23.438,84.961,671179.688,0.023
671179.694,22.461,-877.441,-16.113,66.406,671179.688,0.027
671179.698,7.324,-494.141,-1.465,41.504,671179.688,0.031
671179.701,100.586,-363.281,-0.977,62.500,671179.750,-0.028
671179.705,119.629,-339.844,-3.906,69.336,671179.750,-0.024
671179.709,3.906,-738.770,-5.859,56.641,671179.750,-0.020
671179.713,-36.621,-872.070,-5.371,42.480,671179.750,-0.016
671179.717,55.176,-447.754,-7.812,28.809,671179.688,0.025
671179.721,114.258,-409.668,-18.066,41.992,671179.688,0.029
671179.725,44.922,-399.902,-18.555,28.320,671179.750,-0.030
671179.729,-37.109,-617.188,-12.207,9.277,671179.750,-0.026
671179.733,22.949,-748.047,-21.484,16.113,671179.750,-0.022
671179.737,122.559,-748.535,-20.996,35.645,671179.750,-0.018
671179.741,90.332,-925.781,-9.277,35.156,671179.750,-0.014
671179.744,7.324,-838.867,-9.766,14.648,671179.750,-0.010
671179.748,41.016,-892.578,-12.695,24.902,671179.750,-0.006
671179.752,139.648,-810.059,-17.090,44.434,671179.750,-0.002
671179.756,137.207,-429.199,-22.949,34.668,671179.750,0.002
671179.760,47.363,-386.230,-24.414,19.531,671179.750,0.005
671179.764,36.621,-290.527,-28.320,15.625,671179.750,0.001
671179.768,114.746,-471.680,-23.926,48.340,671179.750,0.005
671179.772,112.793,-867.188,-23.438,66.406,671179.750,0.009
671179.776,8.789,-704.102,-27.344,38.574,671179.750,0.013
671179.780,-46.875,-466.797,-26.855,25.391,671179.750,0.016
671179.784,20.508,-659.668,-26.855,49.316,671179.750,0.020
671179.787,85.938,-893.555,-29.785,63.477,671179.750,0.024
671179.791,19.043,-1000.000,-25.879,73.242,671179.750,0.028
671179.795,-62.988,-848.145,-24.902,48.340,671179.812,-0.030
671179.799,-6.836,-420.898,-28.809,20.020,671179.812,-0.026
671179.803,91.797,-264.648,-27.344,47.363,671179.812,-0.023
671179.807,60.547,-411.621,-25.879,56.641,671179.812,-0.019
671179.811,-38.574,-761.719,-16.602,42.480,671179.812,-0.002
671179.815,-24.902,-596.680,-19.531,29.297,671179.812,0.002
671179.819,73.730,-372.070,-20.996,46.387,671179.812,0.006
671179.823,80.566,-377.930,-16.113,47.852,671179.812,0.010
671179.826,-8.789,-380.371,-22.949,23.438,671179.812,0.014
671179.830,-13.672,-706.055,-23.438,29.785,671179.812,0.018
671179.834,84.473,-804.199,-22.949,47.852,671179.812,0.022
671179.838,118.652,-747.559,-26.855,43.945,671179.812,0.026
671179.842,36.621,-561.523,-29.785,13.184,671179.812,0.030
671179.846,-24.902,-333.008,-28.809,1.465,671179.875,-0.029
671179.850,29.785,-736.328,-22.949,31.250,671179.875,-0.025
671179.854,94.238,-854.492,-25.391,47.363,671179.875,-0.021
671179.858,33.203,-490.723,-32.715,23.438,671179.875,-0.025
671179.862,-62.988,-389.160,-29.297,3.906,671179.875,-0.021
671179.866,-35.156,-290.039,-24.902,16.602,671179.875,-0.017
671179.869,46.387,-687.500,-18.555,58.105,671179.875,-0.013
671179.873,21.484,-879.883,-24.902,56.152,671179.875,-0.009
671179.877,-72.754,-740.723,-26.367,24.414,671179.875,-0.005
671179.881,-62.988,-707.520,-22.949,19.531,671179.875,-0.001
671179.885,35.645,-356.445,-24.902,25.391,671179.875,0.003
671179.889,39.551,-659.668,-18.066,46.387,671179.875,0.007
671179.893,-45.410,-911.133,-20.020,28.320,671179.875,0.011
671179.897,-55.176,-473.145,-25.879,0.000,671179.875,0.014
671179.901,39.551,-318.359,-27.832,18.066,671179.875,0.018
671179.905,93.750,-261.230,-29.785,26.367,671179.938,-0.027
671179.909,15.625,-636.230,-20.996,24.414,671179.938,-0.023
671179.912,-57.129,-842.773,-14.648,7.812,671179.938,-0.019
671179.916,5.371,-364.746,-20.508,7.324,671179.938,-0.015
671179.920,80.566,-289.551,-20.020,27.832,671179.938,-0.011
671179.924,32.227,-561.523,-20.996,27.832,671179.938,-0.007
671179.928,-70.801,-885.254,-27.344,11.230,671179.938,-0.004
671179.932,-62.988,-959.961,-25.879,10.254,671179.938,0.000
671179.936,22.949,-574.219,-26.855,16.602,671179.938,0.004
671179.940,-12.695,-381.836,-28.809,21.484,671179.938,0.008
671179.944,-138.184,-314.453,-26.855,3.418,671179.938,0.012
671179.948,-151.855,-441.406,-27.832,2.930,671179.938,0.016
671179.951,-53.223,-596.680,-24.902,33.691,671179.938,0.013
671179.955,-24.414,-332.520,-23.438,31.738,671179.938,0.017
671179.959,-106.934,-301.270,-26.367,12.695,671179.938,0.021
671179.963,-136.230,-318.848,-26.855,2.930,671179.938,0.025
671179.967,-34.668,-449.707,-29.785,18.066,671179.938,0.029
671179.971,26.367,-807.617,-31.738,37.598,671180.000,-0.030
671179.975,-50.781,-914.062,-25.879,19.043,671180.000,-0.026
671179.979,-119.141,-657.227,-23.926,-3.418,671180.000,-0.022
671179.983,-59.570,-437.988,-27.344,10.254,671180.000,-0.018
671179.987,18.066,-626.953,-26.855,29.785,671180.000,-0.014
671179.991,-32.227,-916.992,-24.414,30.762,671180.000,-0.010
671179.994,-119.141,-715.332,-25.391,6.836,671180.000,-0.006
671179.998,-77.148,-277.832,-25.391,1.465,671180.000,-0.010
671180.002,40.527,-235.840,-20.508,30.273,671180.000,-0.006
671180.006,52.734,-410.156,-20.020,33.691,671180.000,-0.002
671180.010,-25.879,-600.098,-23.926,10.742,671180.000,0.002
671180.014,-22.949,-485.840,-26.855,4.395,671180.000,0.006
671180.018,64.941,-603.516,-25.391,35.156,671180.000,0.010
671180.022,84.473,-825.684,-26.367,54.688,671180.000,0.014
671180.026,-22.949,-814.941,-33.203,19.043,671180.000,0.018
671180.030,-83.496,-928.711,-33.203,9.766,671180.000,0.022
671180.034,1.953,-821.777,-35.645,27.344,671180.000,0.026
671180.037,80.566,-399.414,-36.621,19.531,671180.000,0.029
671180.041,16.113,-327.148,-29.297,9.766,671180.062,-0.029
671180.045,-70.312,-309.570,-32.227,-9.277,671180.062,-0.012
671180.049,-16.602,-495.117,-31.250,5.371,671180.062,-0.008
671180.053,87.402,-508.301,-29.297,28.320,671180.062,-0.004
671180.057,62.012,-314.941,-39.551,13.184,671180.062,0.000
671180.061,-32.227,-346.680,-37.109,-7.324,671180.062,0.004
671180.065,-19.043,-585.938,-30.273,0.000,671180.062,0.008
671180.069,63.477,-881.836,-31.738,35.645,671180.062,0.012
671180.073,51.758,-874.512,-26.855,46.875,671180.062,0.016
671180.076,-45.898,-608.887,-30.273,11.719,671180.062,0.020
671180.080,-48.828,-359.375,-33.691,10.742,671180.062,0.023
671180.084,44.922,-244.141,-36.133,38.086,671180.062,0.027
671180.088,63.965,-697.754,-28.809,63.965,671180.125,-0.031
671180.092,-30.273,-804.688,-25.391,40.039,671180.062,0.030
671180.096,-90.332,-335.449,-28.809,9.766,671180.125,-0.029
671180.100,-12.207,-271.973,-28.809,26.855,671180.125,-0.025
671180.104,76.660,-282.715,-29.785,38.086,671180.125,-0.021
671180.108,26.367,-480.469,-25.879,35.156,671180.125,-0.017
671180.112,-60.547,-836.426,-23.926,28.809,671180.125,-0.013
671180.116,-11.719,-801.758,-30.762,23.438,671180.125,-0.009
671180.119,84.961,-755.371,-33.203,39.551,671180.125,-0.005
671180.123,62.500,-520.996,-33.203,34.180,671180.125,-0.001
671180.127,-29.297,-467.773,-35.156,17.578,671180.125,0.002
671180.131,-24.414,-714.844,-34.668,32.227,671180.125,0.006
671180.135,66.895,-493.164,-30.762,46.387,671180.125,0.010
671180.139,66.406,-333.496,-28.320,50.293,671180.125,0.005
671180.143,-47.852,-403.320,-29.785,27.344,671180.125,0.009
671180.147,-84.473,-636.719,-30.762,17.578,671180.125,0.013
671180.151,11.230,-783.203,-33.203,37.598,671180.125,0.017
671180.155,72.266,-558.105,-39.062,37.598,671180.125,0.021
671180.159,16.602,-671.875,-41.016,21.484,671180.125,0.025
671180.162,-29.297,-753.418,-37.598,9.277,671180.125,0.029
671180.166,42.480,-423.340,-36.621,8.301,671180.188,-0.030
671180.170,113.281,-733.887,-34.668,48.828,671180.188,-0.026
671180.174,64.453,-891.602,-37.109,35.156,671180.188,-0.022
671180.178,-2.930,-395.996,-41.504,-15.625,671180.188,-0.018
671180.182,39.062,-249.512,-35.645,2.930,671180.188,-0.014
671180.186,128.906,-257.812,-35.156,23.926,671180.188,0.003
671180.190,103.516,-688.477,-32.227,41.016,671180.188,0.007
671180.194,-9.766,-817.383,-33.203,21.973,671180.188,0.011
671180.198,-13.184,-438.477,-38.574,6.348,671180.188,0.015
671180.201,68.848,-344.238,-41.016,29.297,671180.188,0.019
671180.205,70.801,-537.598,-41.504,36.621,671180.188,0.023
671180.209,-28.320,-877.930,-41.504,41.504,671180.188,0.027
671180.213,-77.637,-992.188,-39.062,30.762,671180.188,0.031
671180.217,7.324,-680.176,-41.504,11.230,671180.250,-0.028
671180.221,79.590,-354.980,-42.969,25.879,671180.250,-0.024
671180.225,13.184,-255.859,-43.457,18.066,671180.250,-0.020
671180.229,-61.523,-536.621,-40.039,10.254,671180.250,-0.016
671180.233,0.000,-580.566,-39.551,20.996,671180.250,-0.019
671180.237,85.938,-293.945,-38.086,36.621,671180.250,-0.015
671180.241,34.180,-428.711,-34.668,35.645,671180.250,-0.011
671180.244,-62.988,-329.590,-37.109,15.625,671180.250,-0.008
671180.248,-29.785,-454.590,-33.203,29.785,671180.250,-0.004
671180.252,75.684,-877.441,-30.273,58.594,671180.250,0.000
671180.256,86.426,-712.402,-35.156,52.734,671180.250,0.004
671180.260,0.488,-465.332,-34.180,37.109,671180.250,0.008
671180.264,3.418,-455.566,-33.203,39.062,671180.250,0.012
671180.268,113.770,-533.203,-31.250,61.523,671180.250,0.016
671180.272,142.090,-880.371,-33.203,67.871,671180.250,0.020
671180.276,47.363,-659.668,-45.410,19.043,671180.250,0.024
671180.280,-3.906,-405.273,-47.852,-1.953,671180.250,0.020
671180.284,63.965,-314.453,-41.504,20.508,671180.250,0.024
671180.287,104.004,-418.457,-30.762,41.016,671180.250,0.028
671180.291,20.508,-639.648,-31.738,28.320,671180.312,-0.030
671180.295,-58.105,-429.199,-34.180,10.254,671180.312,-0.027
671180.299,-10.742,-552.246,-21.973,34.180,671180.312,-0.023
671180.303,72.754,-729.004,-21.973,51.758,671180.312,-0.019
671180.307,58.594,-842.285,-28.320,41.504,671180.312,-0.015
671180.311,-24.414,-872.559,-28.320,18.066,671180.312,-0.011
671180.315,8.301,-507.812,-26.855,12.207,671180.312,-0.007
671180.319,129.883,-414.551,-31.250,44.922,671180.312,-0.003
671180.323,138.184,-664.551,-35.645,53.223,671180.312,0.001
671180.326,41.504,-520.508,-30.762,21.484,671180.312,0.018
671180.330,15.137,-716.309,-29.785,27.832,671180.312,0.022
671180.334,103.516,-698.242,-29.785,42.480,671180.312,0.026
671180.338,134.277,-395.996,-32.227,37.109,671180.312,0.030
671180.342,35.156,-500.977,-35.645,24.414,671180.375,-0.029
671180.346,-25.391,-646.973,-32.227,18.555,671180.375,-0.025
671180.350,51.758,-909.668,-31.738,51.758,671180.375,-0.021
671180.354,137.207,-846.680,-29.297,65.430,671180.375,-0.017
671180.358,87.891,-477.539,-34.180,41.504,671180.375,-0.013
671180.362,-4.395,-352.539,-39.551,23.438,671180.375,-0.009
671180.366,37.109,-305.664,-34.180,24.414,671180.375,-0.005
671180.369,134.766,-598.145,-31.250,54.199,671180.375,-0.002
671180.373,111.816,-627.930,-34.180,49.805,671180.375,-0.005
671180.377,8.789,-404.785,-34.668,21.484,671180.375,-0.001
671180.381,16.113,-605.469,-35.645,21.484,671180.375,0.003
671180.385,111.816,-568.848,-36.133,43.945,671180.375,0.007
671180.389,113.281,-711.914,-29.297,61.035,671180.375,0.011
671180.393,20.996,-988.770,-30.762,39.062,671180.375,0.015
671180.397,-2.930,-914.062,-36.621,18.555,671180.375,0.019
671180.401,76.172,-850.098,-36.133,34.180,671180.375,0.023
671180.405,117.676,-608.887,-37.109,40.039,671180.375,0.027
671180.409,45.410,-798.828,-30.273,39.551,671180.375,0.030
671180.412,-15.137,-847.656,-32.715,16.113,671180.438,-0.028
671180.416,55.664,-450.195,-38.086,7.324,671180.438,-0.024
671180.420,130.371,-344.727,-34.668,30.273,671180.438,-0.027
671180.424,79.102,-268.555,-31.250,23.438,671180.438,-0.023
671180.428,-17.578,-566.406,-41.016,12.207,671180.438,-0.019
671180.432,3.906,-860.840,-42.480,24.902,671180.438,-0.015
671180.436,103.027,-561.523,-25.879,34.180,671180.438,-0.011
671180.440,83.984,-659.668,-25.391,36.621,671180.438,-0.007
671180.444,-6.348,-829.102,-30.273,15.137,671180.438,-0.003
671180.448,4.883,-867.188,-30.762,16.113,671180.438,0.001
671180.452,96.680,-947.754,-35.645,48.828,671180.438,0.004
671180.455,124.023,-695.312,-36.621,41.992,671180.438,0.008
671180.459,44.922,-455.566,-37.109,10.742,671180.438,0.012
671180.463,5.859,-329.102,-38.086,4.395,671180.438,0.016
671180.467,79.590,-396.484,-30.273,35.645,671180.500,0.010
671180.471,127.441,-607.422,-26.855,50.781,671180.500,0.014
671180.475,38.086,-500.000,-33.203,28.320,671180.500,0.018
671180.479,-53.711,-363.770,-36.133,7.324,671180.500,0.022
671180.483,-7.324,-347.656,-38.574,20.508,671180.500,0.026
671180.487,71.289,-630.859,-38.086,54.199,671180.500,0.030
671180.491,25.879,-944.824,-39.551,44.922,671180.562,-0.029
671180.494,-65.918,-856.934,-46.387,11.230,671180.562,-0.025
671180.498,-24.414,-709.961,-47.852,16.113,671180.562,-0.021
671180.502,91.309,-560.059,-40.039,40.527,671180.562,-0.017
671180.506,92.773,-432.129,-28.320,39.551,671180.562,-0.013
671180.510,0.977,-730.469,-30.762,22.461,671180.562,-0.009
671180.514,-8.789,-647.461,-36.621,11.230,671180.500,0.013
671180.518,82.520,-357.910,-31.250,37.109,671180.500,0.017
671180.522,110.352,-399.414,-28.320,55.664,671180.500,0.021
671180.526,13.184,-371.582,-28.320,30.762,671180.500,0.025
671180.530,-50.293,-675.293,-20.020,27.344,671180.500,0.029
671180.534,20.996,-996.094,-18.066,48.828,671180.562,-0.030
671180.537,93.750,-804.688,-26.367,50.293,671180.562,-0.026
671180.541,49.316,-559.570,-31.250,29.297,671180.562,-0.022
671180.545,-7.812,-396.484,-28.809,9.277,671180.562,-0.018
671180.549,45.898,-665.527,-24.414,28.809,671180.562,-0.014
671180.553,119.141,-731.934,-29.785,39.062,671180.562,-0.010
671180.557,90.820,-645.996,-24.414,29.785,671180.562,-0.007
671180.561,-0.488,-657.227,-20.508,18.555,671180.562,-0.012
671180.565,7.324,-329.102,-22.461,17.578,671180.562,-0.008
671180.569,78.613,-630.371,-21.484,51.270,671180.562,-0.004
671180.573,50.781,-896.484,-25.879,50.781,671180.562,-0.000
671180.577,-48.828,-595.703,-21.973,26.367,671180.562,0.004
671180.580,-67.383,-714.355,-23.438,37.109,671180.562,0.007
671180.584,25.879,-860.840,-34.668,56.152,671180.562,0.011
671180.588,75.195,-875.000,-25.391,62.988,671180.562,0.015
671180.592,-15.137,-1000.000,-14.648,62.012,671180.562,0.019
671180.596,-67.383,-809.082,-28.320,23.438,671180.562,0.023
671180.600,18.555,-367.188,-37.109,3.906,671180.562,0.027
671180.604,88.379,-220.215,-41.016,21.973,671180.562,0.031
671180.608,33.691,-384.766,-44.434,19.531,671180.625,-0.014
671180.612,-50.781,-548.340,-33.691,11.719,671180.625,-0.010
671180.616,-10.742,-556.641,-27.344,23.438,671180.625,-0.007
671180.619,76.660,-576.172,-30.762,37.598,671180.625,-0.003
671180.623,49.316,-364.746,-31.250,21.973,671180.625,0.001
671180.627,-43.945,-557.129,-22.949,15.625,671180.625,0.005
671180.631,-27.832,-893.555,-21.973,31.738,671180.625,0.009
671180.635,71.777,-613.770,-26.367,30.762,671180.625,0.013
671180.639,69.336,-330.566,-24.902,20.508,671180.625,0.017
671180.643,-45.898,-327.637,-26.367,6.836,671180.625,0.021
671180.647,-91.797,-341.797,-27.832,5.859,671180.625,0.025
671180.651,-22.949,-585.449,-23.926,31.738,671180.625,0.029
671180.655,7.812,-472.656,-23.926,40.039,671180.625,0.025
671180.659,-84.473,-287.598,-22.461,23.926,671180.625,0.029
671180.662,-146.484,-293.945,-14.648,9.766,671180.688,-0.029
671180.666,-55.176,-341.309,-15.625,21.973,671180.688,-0.025
671180.670,24.414,-652.832,-23.926,33.203,671180.688,-0.022
671180.674,-15.625,-867.188,-24.902,20.508,671180.688,-0.018
671180.678,-77.148,-835.938,-23.926,2.441,671180.688,-0.014
671180.682,-40.527,-812.500,-24.414,15.137,671180.688,-0.010
671180.686,66.895,-768.066,-24.414,39.062,671180.688,-0.006
671180.690,57.617,-924.805,-23.438,46.387,671180.688,-0.002
671180.694,-44.434,-787.109,-24.902,19.043,671180.688,0.002
671180.698,-37.598,-335.449,-32.715,0.000,671180.688,0.006
671180.702,65.918,-273.926,-30.273,28.320,671180.688,0.003
671180.705,68.848,-223.633,-23.926,30.762,671180.688,0.007
671180.709,-37.109,-648.438,-20.020,25.879,671180.688,0.011
671180.713,-57.129,-724.121,-26.367,6.348,671180.688,0.015
671180.717,53.711,-292.480,-35.156,7.812,671180.688,0.018
671180.721,112.793,-602.051,-21.484,46.387,671180.688,0.022
671180.725,39.062,-556.152,-8.789,20.020,671180.688,0.026
671180.729,-33.691,-599.609,-13.672,1.465,671180.688,0.030
671180.733,13.184,-979.492,-20.996,20.996,671180.750,-0.028
671180.737,95.703,-585.449,-30.273,20.996,671180.750,-0.025
671180.741,49.316,-319.824,-25.391,16.602,671180.750,-0.021
671180.744,-48.828,-296.875,-18.555,-0.488,671180.750,-0.017
671180.748,-30.273,-522.949,-20.020,20.996,671180.750,0.000
671180.752,61.523,-579.590,-20.020,45.898,671180.750,0.004
671180.756,53.223,-287.598,-21.484,36.133,671180.750,0.008
671180.760,-35.156,-294.434,-21.973,20.996,671180.750,0.012
671180.764,-28.809,-270.020,-20.996,18.066,671180.750,0.016
671180.768,62.012,-594.238,-17.578,48.828,671180.750,0.020
671180.772,82.031,-986.328,-16.113,70.312,671180.750,0.024
671180.776,-5.859,-874.023,-23.438,35.645,671180.750,0.028
671180.780,-49.805,-504.395,-22.949,13.672,671180.812,-0.031
671180.784,24.902,-182.129,-22.461,28.320,671180.812,-0.027
671180.787,76.660,-385.254,-22.461,46.875,671180.812,-0.023
671180.791,-3.418,-804.199,-18.066,37.598,671180.812,-0.019
671180.795,-94.727,-552.734,-24.414,5.859,671180.812,-0.022
671180.799,-55.664,-256.348,-26.367,11.230,671180.812,-0.018
671180.803,37.109,-228.027,-20.508,38.574,671180.812,-0.014
671180.807,7.812,-433.105,-17.090,40.527,671180.812,-0.010
671180.811,-93.750,-690.918,-20.996,24.902,671180.812,-0.006
671180.815,-64.941,-735.840,-22.461,24.902,671180.812,-0.002
671180.819,42.969,-698.242,-20.508,44.922,671180.812,0.002
671180.823,44.922,-438.477,-25.879,37.598,671180.812,0.006
671180.827,-41.016,-430.176,-25.391,14.160,671180.812,0.010
671180.830,-46.387,-851.562,-18.555,40.527,671180.812,0.014
671180.834,55.176,-797.852,-20.508,59.082,671180.812,0.018
671180.838,83.496,-370.605,-23.926,47.363,671180.812,0.021
671180.842,-11.719,-320.801,-20.508,32.715,671180.812,0.019
671180.846,-85.938,-352.051,-28.809,18.066,671180.812,0.023
671180.850,-49.805,-693.359,-28.320,40.039,671180.812,0.027
671180.854,1.465,-614.746,-28.809,46.875,671180.812,0.031
671180.858,-46.387,-415.527,-26.855,40.039,671180.875,-0.028
671180.862,-117.188,-716.797,-23.438,38.574,671180.875,-0.024
671180.866,-50.781,-850.098,-22.461,41.992,671180.875,-0.020
671180.869,81.055,-910.156,-17.578,58.594,671180.875,-0.016
671180.873,83.008,-680.176,-11.719,48.828,671180.875,-0.012
671180.877,-8.301,-338.867,-16.113,20.020,671180.875,-0.008
671180.881,12.207,-271.973,-28.320,25.391,671180.875,-0.004
671180.885,128.906,-262.207,-21.973,44.922,671180.875,-0.000
671180.889,137.207,-659.180,-11.230,52.734,671180.875,0.015
671180.893,45.898,-756.348,-11.719,29.297,671180.875,0.019
671180.897,39.062,-322.266,-16.113,4.395,671180.875,0.023
671180.901,122.559,-215.820,-16.113,24.902,671180.875,0.027
671180.905,136.230,-346.191,-19.531,38.574,671180.875,0.031
671180.909,15.625,-754.883,-14.160,34.180,671180.938,-0.028
671180.912,-73.242,-1000.000,-8.789,32.715,671180.938,-0.024
671180.916,-20.020,-613.281,-19.531,20.508,671180.938,-0.020
671180.920,51.270,-279.297,-24.902,32.227,671180.938,-0.016
671180.924,16.602,-253.906,-27.344,34.180,671180.938,-0.012
671180.928,-54.688,-514.160,-26.367,24.414,671180.938,-0.008
671180.932,-5.371,-807.617,-20.508,40.039,671180.938,-0.004
671180.936,113.281,-488.770,-24.414,42.480,671180.938,-0.007
671180.940,102.539,-333.984,-25.391,31.738,671180.938,-0.003
671180.944,-9.277,-353.027,-22.949,13.672,671180.938,0.001
671180.948,-28.320,-479.492,-29.297,21.484,671180.938,0.005
671180.952,48.828,-605.469,-28.320,41.504,671180.938,0.009
671180.955,52.246,-634.277,-20.508,40.527,671180.938,0.013
671180.959,-56.152,-808.594,-21.484,25.391,671180.938,0.017
671180.963,-93.750,-802.246,-21.484,14.648,671180.938,0.021
671180.967,-5.859,-677.734,-18.066,28.320,671180.938,0.024
671180.971,48.828,-866.211,-17.090,53.223,671180.938,0.028
671180.975,-10.742,-680.176,-23.926,24.902,671181.000,-0.030
671180.979,-56.641,-289.062,-30.273,-0.488,671181.000,-0.026
671180.983,27.832,-273.926,-31.250,21.973,671181.000,-0.030
671180.987,109.863,-347.168,-27.832,41.992,671181.000,-0.026
671180.991,63.477,-573.730,-30.762,37.598,671181.000,-0.022
671180.994,-30.762,-468.750,-33.691,11.719,671181.000,-0.018
671180.998,-17.578,-271.484,-29.785,14.160,671181.000,-0.014
671181.002,63.477,-591.309,-29.297,37.109,671181.000,-0.010
671181.006,62.500,-798.828,-33.203,39.062,671181.000,-0.006
671181.010,-17.578,-900.391,-28.320,51.270,671181.000,-0.002
671181.014,-24.414,-775.879,-19.531,49.316,671181.000,0.002
671181.018,73.242,-326.172,-19.531,38.574,671181.000,0.006
671181.022,115.234,-297.363,-15.625,47.363,671181.000,0.009
671181.026,36.621,-520.996,-18.555,28.320,671181.000,0.013
671181.030,10.742,-741.699,-21.973,15.625,671181.000,0.030
671181.034,112.305,-489.746,-16.113,23.438,671181.062,-0.028
671181.037,177.734,-333.984,-13.184,42.480,671181.062,-0.024
671181.041,104.980,-518.066,-13.672,40.039,671181.062,-0.020
671181.045,19.043,-502.441,-12.695,17.090,671181.062,-0.016
671181.049,51.270,-747.070,-9.766,46.875,671181.062,-0.013
671181.053,119.141,-995.605,-16.602,65.918,671181.062,-0.009
671181.057,77.148,-798.828,-23.926,30.762,671181.062,-0.005
671181.061,-21.484,-596.680,-19.043,13.672,671181.062,-0.001
671181.065,-13.184,-365.234,-21.973,16.113,671181.062,0.003
671181.069,71.289,-600.098,-21.973,46.387,671181.062,0.007
671181.073,81.055,-803.711,-20.508,53.711,671181.062,0.011
671181.077,0.977,-406.250,-23.438,24.902,671181.062,0.028
671181.080,-5.859,-342.285,-23.438,20.508,671181.125,-0.030
671181.084,86.426,-540.039,-25.879,44.922,671181.125,-0.026
671181.088,123.047,-815.430,-25.879,63.477,671181.125,-0.023
671181.092,50.781,-713.379,-28.320,41.504,671181.125,-0.019
671181.096,12.207,-608.887,-33.691,20.508,671181.125,-0.015
671181.100,91.309,-779.785,-33.691,33.203,671181.125,-0.011
671181.104,160.156,-505.859,-35.645,43.945,671181.125,-0.007
671181.108,105.469,-527.832,-34.668,45.410,671181.125,-0.003
671181.112,23.926,-943.848,-24.902,46.387,671181.125,0.001
671181.116,78.125,-600.098,-25.879,35.645,671181.125,0.005
671181.119,184.082,-326.172,-25.391,48.340,671181.125,0.009
671181.123,161.621,-375.000,-28.809,43.945,671181.125,-0.015
671181.127,67.383,-459.473,-30.762,15.625,671181.125,-0.011
671181.131,85.938,-621.094,-30.762,15.137,671181.125,-0.007
671181.135,180.176,-386.719,-29.297,34.668,671181.125,-0.003
671181.139,166.016,-433.105,-26.855,43.945,671181.125,0.001
671181.143,56.152,-678.223,-27.832,30.762,671181.125,0.005
671181.147,31.738,-771.484,-31.738,21.484,671181.125,0.009
671181.151,116.211,-940.430,-34.668,37.109,671181.125,0.013
671181.155,157.227,-838.379,-38.086,39.551,671181.125,0.017
671181.159,83.008,-556.641,-34.668,15.625,671181.125,0.021
671181.162,10.742,-418.945,-33.691,1.465,671181.125,0.024
671181.166,67.383,-291.504,-34.668,11.719,671181.125,0.028
671181.170,140.625,-728.516,-31.738,50.293,671181.188,0.003
671181.174,88.867,-867.188,-37.598,40.039,671181.188,0.007
671181.178,-6.836,-431.152,-39.551,-0.488,671181.188,0.011
671181.182,6.348,-351.074,-34.668,13.672,671181.188,0.015
671181.186,74.219,-345.703,-31.250,36.133,671181.188,0.019
671181.190,28.809,-755.859,-25.391,52.734,671181.188,0.023
671181.194,-83.496,-846.680,-22.461,28.809,671181.188,0.027
671181.198,-80.566,-393.555,-29.297,9.766,671181.188,0.031
671181.202,8.301,-502.930,-34.180,34.668,671181.250,-0.028
671181.205,15.625,-600.586,-34.180,33.203,671181.250,-0.024
671181.209,-68.848,-721.680,-27.832,23.926,671181.250,-0.020
671181.213,-92.773,-660.645,-20.996,23.926,671181.250,-0.016
671181.217,-7.812,-363.770,-27.344,34.180,671181.188,0.023
671181.221,34.668,-450.195,-34.668,44.434,671181.188,0.027
671181.225,-34.180,-355.469,-35.645,20.020,671181.188,0.031
671181.229,-104.980,-637.695,-35.645,18.066,671181.250,-0.028
671181.233,-48.340,-792.969,-32.715,40.039,671181.250,-0.024
671181.237,47.852,-725.098,-40.039,53.711,671181.250,-0.020
671181.241,10.742,-917.969,-39.551,51.758,671181.250,-0.016
671181.244,-61.035,-832.520,-26.367,24.414,671181.250,-0.012
671181.248,-6.836,-897.461,-20.508,33.203,671181.250,-0.008
671181.252,109.863,-841.309,-22.461,58.594,671181.250,-0.004
671181.256,109.375,-454.102,-28.809,41.992,671181.250,-0.001
671181.260,-2.930,-576.660,-30.273,25.391,671181.250,0.003
671181.264,-20.020,-610.352,-29.297,19.043,671181.250,0.001
671181.268,57.617,-546.387,-29.785,43.945,671181.250,0.005
671181.272,62.500,-915.527,-32.227,55.176,671181.250,0.008
671181.276,-20.508,-733.887,-36.133,13.672,671181.250,0.012
671181.280,-65.918,-493.652,-36.621,2.930,671181.250,0.016
671181.284,4.395,-608.398,-33.691,27.344,671181.250,0.020
671181.287,58.594,-772.949,-29.297,47.363,671181.250,0.024
671181.291,-9.766,-893.066,-26.855,39.551,671181.250,0.028
671181.295,-92.773,-657.227,-35.156,-1.953,671181.312,-0.031
671181.299,-38.086,-399.414,-37.109,-1.465,671181.312,-0.027
671181.303,50.293,-299.805,-32.715,25.391,671181.312,-0.023
671181.307,8.789,-434.082,-30.273,23.438,671181.312,-0.019
671181.311,-82.520,-673.340,-33.691,4.395,671181.312,-0.002
671181.315,-53.711,-440.918,-36.621,2.930,671181.312,0.002
671181.319,52.734,-482.422,-23.926,35.156,671181.312,0.006
671181.323,60.547,-605.957,-21.484,44.434,671181.312,0.010
671181.327,-41.504,-426.270,-23.438,20.020,671181.312,0.014
671181.330,-73.242,-699.707,-23.438,6.348,671181.312,0.018
671181.334,17.578,-953.613,-21.484,19.043,671181.312,0.022
671181.338,63.965,-841.309,-24.414,30.762,671181.312,0.026
671181.342,-7.812,-539.551,-29.297,6.348,671181.312,0.030
671181.346,-55.664,-300.781,-33.203,-8.789,671181.375,-0.029
671181.350,-1.953,-674.316,-24.902,36.621,671181.375,-0.025
671181.354,34.668,-792.480,-24.902,58.105,671181.375,-0.021
671181.358,-52.246,-409.180,-33.691,21.973,671181.375,-0.004
671181.362,-151.367,-335.449,-28.320,3.906,671181.375,-0.000
671181.366,-98.633,-278.809,-23.438,20.020,671181.375,0.003
671181.369,-3.906,-532.715,-24.414,38.086,671181.375,0.007
671181.373,-23.926,-640.137,-28.809,29.785,671181.375,0.011
671181.377,-95.215,-651.367,-27.832,19.531,671181.375,0.015
671181.381,-48.340,-844.727,-29.785,24.414,671181.375,0.019
671181.385,68.359,-617.676,-36.621,25.879,671181.375,0.023
671181.389,83.984,-677.734,-27.832,38.086,671181.375,0.027
671181.393,9.277,-892.090,-20.508,32.227,671181.375,0.031
671181.397,-1.465,-472.656,-28.320,-3.418,671181.438,-0.028
671181.401,70.312,-271.484,-30.762,6.348,671181.438,-0.024
671181.405,87.891,-236.328,-33.203,14.160,671181.375,0.017
671181.409,-15.137,-549.316,-31.250,3.418,671181.375,0.021
671181.412,-105.957,-740.234,-32.227,-9.766,671181.375,0.025
671181.416,-50.293,-422.363,-35.645,-5.859,671181.375,0.029
671181.420,31.250,-346.680,-32.715,22.461,671181.438,-0.029
671181.424,-6.348,-614.258,-36.621,22.461,671181.438,-0.026
671181.428,-76.660,-935.547,-33.203,13.672,671181.438,-0.022
671181.432,-31.738,-868.652,-29.785,21.973,671181.438,-0.018
671181.436,73.730,-712.402,-30.762,38.574,671181.438,-0.014
671181.440,56.152,-655.273,-26.855,41.992,671181.438,-0.010
671181.444,-46.387,-369.629,-25.391,16.602,671181.438,-0.006
671181.448,-45.410,-488.281,-30.762,22.461,671181.438,-0.002
671181.452,35.156,-770.996,-37.109,46.875,671181.438,0.013
671181.455,28.809,-466.309,-36.621,35.645,671181.438,0.017
671181.459,-77.637,-408.691,-26.855,22.949,671181.438,0.021
671181.463,-113.770,-485.352,-24.902,15.137,671181.438,0.025
671181.467,-27.344,-343.262,-28.809,17.090,671181.438,0.029
671181.471,21.973,-812.988,-21.973,57.129,671181.500,-0.030
671181.475,-31.738,-875.000,-27.344,39.551,671181.500,-0.026
671181.479,-72.754,-353.516,-39.551,-10.742,671181.500,-0.022
671181.483,0.000,-165.527,-34.668,5.371,671181.500,-0.018
671181.487,95.703,-203.613,-26.855,39.551,671181.500,-0.014
671181.491,50.781,-528.320,-28.320,40.039,671181.500,-0.010
671181.494,-46.387,-635.742,-30.762,16.602,671181.500,-0.006
671181.498,-9.277,-520.508,-26.855,20.508,671181.500,-0.010
671181.502,87.402,-331.543,-30.273,36.621,671181.500,-0.006
671181.506,74.707,-309.570,-34.180,33.691,671181.500,-0.002
671181.510,-22.461,-597.656,-29.297,13.184,671181.500,0.002
671181.514,-26.855,-596.680,-28.809,8.789,671181.500,0.006
671181.518,56.641,-625.977,-30.762,37.598,671181.500,0.010
671181.522,82.520,-766.602,-38.086,46.387,671181.500,0.014
671181.526,26.855,-686.035,-34.668,21.484,671181.500,0.018
671181.530,-6.836,-876.953,-20.508,27.832,671181.500,0.022
671181.534,81.543,-808.105,-26.855,40.039,671181.500,0.025
671181.537,168.457,-338.379,-34.668,39.062,671181.500,0.029
671181.541,116.211,-287.109,-23.926,40.039,671181.562,-0.029
671181.545,33.203,-268.066,-20.996,20.996,671181.562,-0.012
671181.549,62.500,-505.859,-25.391,36.133,671181.562,-0.008
671181.553,123.535,-755.859,-24.902,56.152,671181.562,-0.004
671181.557,46.387,-593.750,-27.832,33.691,671181.562,-0.000
671181.561,-96.191,-412.109,-30.273,9.277,671181.562,0.004
671181.565,-102.051,-579.590,-28.809,17.578,671181.562,0.007
671181.569,-10.254,-897.949,-25.391,49.316,671181.562,0.011
671181.573,7.324,-884.766,-23.438,53.223,671181.562,0.015
671181.577,-51.270,-480.957,-31.250,5.371,671181.562,0.019
671181.580,-46.875,-290.527,-34.668,-1.953,671181.562,0.023
671181.584,48.828,-177.246,-34.668,26.855,671181.562,0.027
671181.588,82.031,-501.465,-30.273,50.293,671181.562,0.031
671181.592,6.348,-802.246,-27.832,37.598,671181.562,0.028
671181.596,-34.668,-363.770,-35.645,5.371,671181.625,-0.031
671181.600,46.875,-197.266,-37.109,15.137,671181.625,-0.027
671181.604,124.023,-188.477,-33.691,28.320,671181.625,-0.023
671181.608,56.152,-440.430,-36.621,18.555,671181.625,-0.019
671181.612,-54.688,-857.422,-40.039,4.883,671181.625,-0.015
671181.616,-37.109,-839.355,-37.598,11.719,671181.625,-0.011
671181.619,29.785,-821.289,-32.227,39.062,671181.625,-0.007
671181.623,-15.625,-781.250,-36.133,36.621,671181.625,-0.003
671181.627,-108.887,-674.316,-36.133,18.066,671181.625,0.000
671181.631,-93.750,-723.145,-30.762,15.137,671181.625,0.004
671181.635,22.949,-474.121,-31.738,19.531,671181.625,0.008
671181.639,60.059,-316.895,-30.762,25.879,671181.625,0.006
671181.643,-12.695,-351.562,-35.156,4.883,671181.625,0.009
671181.647,-25.391,-438.965,-34.668,-1.953,671181.625,0.013
671181.651,57.129,-771.484,-26.367,27.832,671181.625,0.017
671181.655,93.750,-655.762,-33.203,26.855,671181.625,0.021
671181.659,-5.371,-632.324,-39.062,4.883,671181.625,0.025
671181.662,-86.914,-683.594,-41.992,-9.766,671181.625,0.029
671181.666,-33.691,-332.031,-41.504,0.000,671181.688,-0.030
671181.670,28.320,-712.402,-27.344,51.270,671181.688,-0.026
671181.674,-12.207,-975.098,-27.344,42.480,671181.688,-0.022
671181.678,-83.984,-491.211,-30.273,-5.371,671181.688,-0.018
671181.682,-37.109,-254.883,-21.973,5.859,671181.688,-0.014
671181.686,80.078,-252.441,-19.531,35.156,671181.688,0.003
671181.690,90.332,-526.367,-18.066,46.875,671181.688,0.007
671181.694,7.324,-537.598,-25.879,20.508,671181.688,0.011
671181.698,23.438,-275.879,-30.762,8.789,671181.688,0.015
671181.702,122.559,-333.008,-35.645,33.691,671181.688,0.019
671181.705,109.375,-682.617,-48.828,39.551,671181.688,0.023
671181.709,-11.230,-984.863,-52.246,34.668,671181.688,0.027
671181.713,-55.176,-900.879,-52.734,26.855,671181.688,0.031
671181.717,21.973,-471.191,-57.129,13.184,671181.750,-0.028
671181.721,67.383,-287.598,-51.270,25.879,671181.750,-0.024
671181.725,-8.789,-282.227,-43.457,17.090,671181.750,-0.020
671181.729,-83.496,-607.910,-34.180,12.207,671181.750,-0.016
671181.733,-9.766,-710.449,-25.879,24.902,671181.750,0.022
671181.737,92.285,-309.570,-34.180,34.180,671181.750,0.025
671181.741,53.223,-298.340,-35.645,27.344,671181.750,0.029
671181.744,-44.922,-313.477,-27.344,17.090,671181.812,-0.029
671181.748,-24.902,-525.391,-31.738,31.738,671181.812,-0.025
671181.752,61.523,-892.090,-28.809,54.688,671181.812,-0.021
671181.756,45.898,-764.160,-26.367,49.805,671181.812,-0.018
671181.760,-59.570,-532.715,-27.344,26.855,671181.812,-0.014
671181.764,-63.965,-357.422,-20.996,21.973,671181.812,-0.010
671181.768,30.762,-539.062,-21.973,45.410,671181.812,-0.006
671181.772,57.617,-785.156,-23.926,52.246,671181.812,-0.002
671181.776,-8.789,-469.727,-26.855,20.020,671181.812,0.002
671181.780,-27.832,-355.957,-27.344,8.301,671181.750,0.024
671181.784,71.777,-327.148,-24.902,22.461,671181.750,0.028
671181.787,151.367,-582.031,-21.484,47.852,671181.812,-0.030
671181.791,92.773,-810.547,-21.973,46.875,671181.812,-0.026
671181.795,18.066,-538.086,-28.320,11.230,671181.812,-0.023
671181.799,74.707,-641.113,-28.320,22.949,671181.812,-0.019
671181.803,166.992,-878.418,-26.855,53.711,671181.812,-0.015
671181.807,131.348,-926.270,-26.367,45.410,671181.812,-0.011
671181.811,20.508,-930.664,-29.297,20.508,671181.812,-0.007
671181.815,32.715,-571.777,-30.273,16.602,671181.812,-0.003
671181.819,125.488,-266.113,-30.762,33.691,671181.812,0.001
671181.823,121.582,-313.965,-24.902,35.156,671181.812,0.005
671181.827,27.832,-467.285,-19.043,22.949,671181.812,0.018
671181.830,6.348,-712.891,-24.414,24.414,671181.812,0.022
671181.834,93.262,-603.516,-26.367,33.203,671181.812,0.026
671181.838,128.418,-398.926,-24.414,36.133,671181.812,0.030
671181.842,53.711,-480.957,-25.391,19.531,671181.875,-0.029
671181.846,-1.465,-756.836,-26.855,7.812,671181.875,-0.025
671181.850,59.082,-942.871,-25.879,39.062,671181.875,-0.021
671181.854,129.395,-1000.000,-20.020,79.102,671181.875,-0.017
671181.858,80.566,-854.492,-24.414,41.504,671181.875,-0.013
671181.862,0.000,-484.863,-37.109,-8.301,671181.875,-0.009
671181.866,49.805,-351.074,-35.156,11.719,671181.875,-0.006
671181.869,137.207,-577.637,-21.484,43.945,671181.875,-0.002
671181.873,101.074,-625.488,-16.602,31.250,671181.875,-0.005
671181.877,-10.742,-374.512,-23.438,-0.488,671181.875,-0.001
671181.881,-16.113,-419.434,-23.438,7.812,671181.875,0.003
671181.885,71.777,-504.883,-19.531,43.945,671181.875,0.007
671181.889,61.035,-680.664,-17.090,53.223,671181.875,0.011
671181.893,-41.992,-884.766,-22.461,27.832,671181.875,0.015
671181.897,-72.754,-812.988,-26.855,15.625,671181.875,0.019
671181.901,2.930,-762.207,-23.438,37.109,671181.875,0.023
671181.905,42.480,-552.246,-31.738,37.598,671181.875,0.027
671181.909,-42.480,-749.023,-34.668,31.738,671181.875,0.031
671181.912,-105.957,-925.293,-32.715,21.973,671181.938,-0.028
671181.916,-33.203,-505.859,-36.133,15.625,671181.938,-0.024
671181.920,48.340,-389.160,-32.715,39.062,671181.938,-0.007
671181.924,-0.488,-361.328,-33.203,35.645,671181.938,-0.003
671181.928,-83.496,-529.297,-30.762,20.996,671181.938,0.001
671181.932,-46.387,-698.730,-29.785,22.949,671181.938,0.005
671181.936,54.688,-412.598,-32.227,42.480,671181.938,0.009
671181.940,42.480,-666.504,-28.320,52.734,671181.938,0.013
671181.944,-34.180,-844.238,-30.762,20.508,671181.938,0.017
671181.948,-4.883,-622.070,-33.203,20.020,671181.938,0.021
671181.952,107.422,-685.059,-30.762,54.199,671181.938,0.025
671181.955,135.742,-519.531,-29.297,51.758,671181.938,0.029
671181.959,46.875,-354.980,-29.297,32.227,671182.000,-0.030
671181.963,1.465,-477.051,-27.832,28.320,671182.000,-0.026
671181.967,70.801,-711.914,-27.344,49.805,671182.000,-0.030
671181.971,109.375,-786.133,-32.715,59.082,671182.000,-0.026
671181.975,27.344,-548.340,-24.902,36.133,671182.000,-0.022
671181.979,-54.199,-351.074,-21.484,18.066,671182.000,-0.018
671181.983,-8.301,-391.602,-25.879,32.227,671182.000,-0.014
671181.987,71.289,-589.844,-20.020,52.734,671182.000,-0.010
671181.991,30.273,-904.297,-13.184,49.316,671182.000,-0.006
671181.994,-62.500,-784.668,-17.090,16.602,671182.000,-0.002
671181.998,-30.762,-350.586,-22.949,17.578,671182.000,0.002
671182.002,65.430,-292.969,-18.066,50.293,671182.000,0.006
671182.006,45.898,-307.129,-15.625,48.340,671182.000,0.009
671182.010,-61.523,-718.750,-17.578,45.898,671182.000,0.013
671182.014,-63.965,-854.004,-17.090,43.457,671182.000,0.010
671182.018,32.715,-332.520,-25.879,36.621,671182.000,0.014
671182.022,50.293,-387.695,-29.297,44.922,671182.000,0.018
671182.026,-28.809,-621.582,-27.832,24.414,671182.000,0.022
671182.030,-51.758,-711.914,-30.762,11.719,671182.000,0.026
671182.034,47.852,-772.949,-35.645,28.809,671182.000,0.030
671182.037,128.418,-625.977,-37.109,37.109,671182.062,-0.029
671182.041,77.637,-461.426,-38.574,20.996,671182.062,-0.025
671182.045,-5.371,-259.277,-34.668,-3.906,671182.062,-0.021
671182.049,21.484,-581.543,-24.414,14.160,671182.062,-0.017
671182.053,82.031,-857.910,-24.414,49.316,671182.062,-0.013
671182.057,32.715,-395.508,-28.809,27.832,671182.062,-0.009
671182.061,-97.656,-247.559,-28.809,-1.465,671182.062,-0.012
671182.065,-116.211,-162.598,-29.785,8.789,671182.062,-0.008
671182.069,-37.598,-506.836,-29.297,43.945,671182.062,-0.004
671182.073,-45.410,-687.500,-27.832,43.945,671182.062,-0.000
671182.077,-125.000,-438.965,-27.832,19.531,671182.062,0.004
671182.080,-116.211,-656.738,-29.785,28.809,671182.062,0.007
671182.084,-9.766,-726.074,-33.691,38.086,671182.062,0.011
671182.088,47.363,-787.598,-39.062,58.105,671182.062,0.015
671182.092,-10.742,-970.215,-31.250,54.688,671182.062,0.019
671182.096,-79.102,-680.664,-21.973,-7.324,671182.062,0.023
671182.100,-48.340,-332.520,-20.508,-23.438,671182.062,0.027
671182.104,5.859,-234.863,-21.484,-11.230,671182.062,0.031
671182.108,-65.918,-462.891,-19.043,-17.090,671182.125,-0.014
671182.112,-179.199,-683.105,-8.789,-48.828,671182.125,-0.010
671182.116,-164.062,-393.066,-5.371,-72.266,671182.125,-0.007
671182.119,-96.191,-290.039,-9.277,-60.547,671182.125,-0.003
671182.123,-142.578,-324.219,-8.301,-80.078,671182.125,0.001
671182.127,-256.348,-609.863,-9.766,-114.746,671182.125,0.005
671182.131,-252.441,-937.500,-10.742,-109.375,671182.125,0.009
671182.135,-167.969,-642.578,-7.324,-118.164,671182.125,0.013
671182.139,-166.504,-553.711,-4.883,-125.000,671182.125,0.017
671182.143,-256.836,-653.809,-4.395,-150.391,671182.125,0.021
671182.147,-281.250,-504.395,-17.578,-170.410,671182.125,0.025
671182.151,-183.105,-605.957,-16.602,-153.320,671182.125,0.029
671182.155,-104.492,-490.723,-3.906,-145.508,671182.125,0.026
671182.159,-182.129,-411.621,-2.441,-162.109,671182.125,0.030
671182.162,-269.531,-410.156,-4.395,-193.359,671182.188,-0.028
671182.166,-173.340,-385.742,-5.371,-150.391,671182.188,-0.025
671182.170,-98.633,-663.086,-2.930,-124.023,671182.188,-0.021
671182.174,-151.855,-898.926,-7.324,-134.277,671182.188,-0.017
671182.178,-196.777,-916.992,-9.277,-119.629,671182.188,-0.013
671182.182,-149.414,-835.449,-8.789,-109.863,671182.188,-0.009
671182.186,-23.926,-526.855,-9.277,-95.215,671182.188,-0.005
671182.190,5.859,-749.023,-6.348,-53.711,671182.188,-0.001
671182.194,-68.848,-843.750,-12.207,-58.105,671182.188,0.003
671182.198,-40.039,-443.848,-15.137,-60.547,671182.188,0.007
671182.202,65.430,-505.859,-12.695,-24.902,671182.188,0.003
671182.205,91.309,-408.691,-20.508,-15.625,671182.188,0.007
671182.209,28.320,-577.148,-20.996,2.930,671182.188,0.011
671182.213,-4.395,-545.898,-20.508,-0.977,671182.188,0.015
671182.217,80.078,-292.969,-25.391,21.973,671182.188,0.019
671182.221,143.066,-629.395,-28.809,69.336,671182.188,0.022
671182.225,90.332,-587.402,-24.414,55.664,671182.188,0.026
671182.229,38.086,-612.305,-21.484,52.734,671182.188,0.030
671182.233,104.980,-870.117,-24.902,86.914,671182.250,-0.028
671182.237,214.355,-467.773,-28.809,86.914,671182.250,-0.024
671182.241,179.688,-309.570,-31.738,70.801,671182.250,-0.020
671182.244,90.332,-247.070,-30.273,58.594,671182.250,-0.017
671182.248,115.723,-459.473,-32.715,77.148,671182.250,0.000
671182.252,201.172,-598.145,-39.062,94.238,671182.250,0.004
671182.256,183.594,-471.191,-34.668,90.332,671182.250,0.008
671182.260,67.871,-628.906,-31.738,77.637,671182.250,0.012
671182.264,48.340,-402.344,-34.180,67.871,671182.250,0.016
671182.268,130.859,-548.828,-35.156,92.285,671182.250,0.020
671182.272,146.484,-983.398,-38.086,111.816,671182.250,0.024
671182.276,74.707,-909.180,-41.504,84.961,671182.250,0.028
671182.280,64.453,-545.410,-40.039,60.059,671182.312,-0.031
671182.284,163.574,-250.488,-43.945,72.754,671182.312,-0.027
671182.287,224.121,-345.215,-42.969,95.703,671182.312,-0.023
671182.291,160.156,-545.410,-33.203,95.215,671182.312,-0.019
671182.295,80.566,-403.809,-37.109,65.918,671182.312,-0.021
671182.299,118.164,-220.215,-43.945,61.035,671182.312,-0.017
671182.303,208.984,-220.703,-45.410,84.473,671182.312,-0.013
671182.307,182.129,-506.348,-38.574,88.867,671182.312,-0.009
671182.311,69.824,-656.738,-37.598,67.871,671182.312,-0.005
671182.315,49.316,-606.934,-39.551,67.871,671182.312,-0.001
671182.319,105.469,-748.047,-39.551,84.473,671182.312,0.003
671182.323,66.406,-678.711,-42.969,79.102,671182.312,0.006
671182.327,-57.129,-387.207,-41.504,55.664,671182.312,0.010
671182.330,-73.242,-645.508,-37.109,59.570,671182.312,0.014
671182.334,33.203,-648.926,-38.574,79.590,671182.312,0.018
671182.338,80.078,-325.195,-34.668,91.309,671182.312,0.022
671182.342,-5.371,-291.504,-38.086,74.219,671182.312,0.018
671182.346,-56.641,-309.570,-43.945,57.129,671182.312,0.022
671182.350,22.949,-670.410,-31.250,80.566,671182.312,0.026
671182.354,96.191,-673.340,-29.785,89.355,671182.312,0.030
671182.358,32.227,-423.828,-29.785,71.289,671182.375,-0.029
671182.362,-68.848,-687.012,-27.832,58.105,671182.375,-0.025
671182.366,-30.762,-787.109,-30.762,58.105,671182.375,-0.021
671182.369,54.199,-872.559,-27.832,88.379,671182.375,-0.017
671182.373,27.344,-1000.000,-32.227,90.332,671182.375,-0.013
671182.377,-48.340,-815.918,-41.504,41.992,671182.375,-0.009
671182.381,-11.719,-408.691,-40.527,37.598,671182.375,-0.005
671182.385,105.957,-127.441,-35.645,65.430,671182.375,-0.002
671182.389,127.930,-519.531,-30.762,78.613,671182.375,0.016
671182.393,41.992,-682.617,-32.715,57.617,671182.375,0.020
671182.397,28.809,-309.570,-35.645,37.598,671182.375,0.023
671182.401,129.395,-230.957,-33.203,55.176,671182.375,0.027
671182.405,170.898,-195.312,-33.691,64.453,671182.438,-0.031
671182.409,73.730,-688.965,-30.273,65.430,671182.438,-0.027
671182.412,-5.371,-849.121,-27.344,45.898,671182.438,-0.023
671182.416,49.805,-324.219,-31.250,30.762,671182.438,-0.019
671182.420,129.883,-271.484,-25.879,55.664,671182.438,-0.016
671182.424,85.449,-305.664,-27.344,51.270,671182.438,-0.012
671182.428,-17.090,-500.977,-27.832,39.062,671182.438,-0.008
671182.432,14.160,-872.070,-27.832,52.246,671182.438,-0.004
671182.436,115.234,-722.656,-35.156,54.688,671182.438,-0.007
671182.440,93.262,-447.754,-36.621,45.410,671182.438,-0.003
671182.444,-1.953,-250.000,-37.109,24.414,671182.438,0.001
671182.448,9.766,-366.211,-33.691,29.785,671182.438,0.005
671182.452,97.656,-654.297,-22.949,61.523,671182.438,0.009
671182.455,96.680,-683.105,-25.879,62.012,671182.438,0.013
671182.459,-8.789,-786.621,-31.250,36.621,671182.438,0.017
671182.463,-52.246,-748.047,-31.738,19.531,671182.438,0.021
671182.467,30.273,-511.230,-32.227,34.668,671182.438,0.025
671182.471,67.383,-796.875,-28.809,67.871,671182.438,0.029
671182.475,-6.348,-723.145,-33.691,46.387,671182.500,-0.030
671182.479,-68.848,-275.879,-37.109,8.301,671182.500,-0.026
671182.483,-11.719,-236.816,-35.645,22.949,671182.500,-0.029
671182.487,80.078,-272.949,-36.133,49.316,671182.500,-0.025
671182.491,38.086,-595.703,-37.109,41.504,671182.500,-0.021
671182.495,-54.199,-688.477,-33.691,20.508,671182.500,-0.018
671182.498,-19.531,-455.078,-26.855,36.133,671182.500,-0.014
671182.502,70.312,-599.121,-25.879,64.453,671182.500,-0.010
671182.506,41.992,-752.441,-29.785,62.500,671182.500,-0.006
671182.510,-68.848,-881.348,-28.809,61.035,671182.500,-0.002
671182.514,-80.078,-890.137,-33.203,54.199,671182.500,0.002
671182.518,22.949,-559.570,-34.668,46.387,671182.500,0.006
671182.522,49.805,-365.234,-29.785,52.734,671182.500,0.010
671182.526,-42.969,-313.965,-30.762,46.875,671182.500,0.014
671182.530,-83.496,-528.320,-27.832,41.016,671182.500,0.031
671182.534,11.230,-474.609,-20.996,45.410,671182.562,-0.028
671182.537,73.242,-270.020,-20.996,52.246,671182.562,-0.024
671182.541,6.348,-327.148,-25.391,43.945,671182.562,-0.020
671182.545,-63.965,-339.844,-17.090,27.832,671182.562,-0.016
671182.549,-14.160,-748.047,-7.812,59.570,671182.562,-0.012
671182.553,79.590,-966.309,-13.672,79.102,671182.562,-0.008
671182.557,61.523,-818.848,-17.090,45.898,671182.562,-0.004
671182.561,-23.926,-715.820,-19.531,25.391,671182.562,-0.001
671182.565,4.395,-295.410,-25.391,24.414,671182.562,0.003
671182.569,97.656,-518.555,-23.438,52.734,671182.562,0.007
671182.573,95.215,-769.043,-24.414,48.828,671182.562,0.011
671182.577,14.648,-362.793,-28.809,6.348,671182.562,0.008
671182.580,15.625,-300.781,-24.902,7.324,671182.562,0.012
671182.584,104.004,-262.207,-25.879,30.762,671182.562,0.016
671182.588,128.906,-516.602,-25.879,45.410,671182.562,0.020
671182.592,57.129,-782.715,-20.020,43.457,671182.562,0.024
671182.596,3.418,-779.785,-15.625,33.691,671182.562,0.028
671182.600,68.359,-757.812,-13.672,53.223,671182.625,-0.031
671182.604,136.230,-402.832,-20.508,55.664,671182.625,-0.027
671182.608,69.336,-515.137,-23.438,53.223,671182.625,-0.023
671182.612,-14.648,-937.500,-18.555,49.805,671182.625,-0.019
671182.616,43.457,-647.461,-20.996,31.738,671182.625,-0.015
671182.620,137.207,-365.723,-20.508,41.016,671182.625,-0.012
671182.623,106.445,-375.977,-24.902,38.086,671182.625,-0.015
671182.627,13.184,-519.531,-30.273,18.555,671182.625,-0.011
671182.631,25.879,-710.449,-30.273,22.949,671182.625,-0.007
671182.635,118.164,-510.254,-34.180,37.598,671182.625,-0.003
671182.639,101.074,-446.289,-27.832,43.945,671182.625,0.001
671182.643,-27.832,-714.355,-14.160,28.809,671182.625,0.005
671182.647,-75.684,-859.375,-5.371,13.184,671182.625,0.009
671182.651,4.883,-963.379,2.441,39.551,671182.625,0.013
671182.655,55.664,-801.270,-2.930,46.875,671182.625,0.017
671182.659,2.441,-486.328,-18.555,13.672,671182.625,0.021
671182.662,-56.152,-396.484,-22.461,-16.602,671182.625,0.025
671182.666,1.465,-398.438,-17.090,-6.836,671182.625,0.028
671182.670,81.543,-670.898,-16.602,28.809,671182.688,-0.017
671182.674,28.320,-588.867,-21.973,8.301,671182.688,-0.013
671182.678,-74.707,-395.996,-26.367,-14.648,671182.688,-0.009
671182.682,-57.129,-420.898,-26.367,2.930,671182.688,-0.005
671182.686,28.320,-433.105,-22.461,35.156,671182.688,-0.002
671182.690,-1.953,-786.621,-25.391,37.598,671182.688,0.002
671182.694,-106.445,-849.609,-33.203,5.371,671182.688,0.006
671182.698,-90.332,-466.309,-28.320,2.930,671182.688,0.010
671182.702,10.254,-404.297,-26.855,25.879,671182.688,0.014
671182.705,27.344,-417.480,-33.203,26.855,671182.688,0.018
671182.709,-52.734,-738.281,-25.879,25.879,671182.688,0.022
671182.713,-72.754,-731.934,-21.973,14.648,671182.688,0.026
671182.717,6.348,-374.023,-25.879,16.113,671182.688,0.023
671182.721,55.176,-419.922,-21.484,28.809,671182.688,0.027
671182.725,-10.254,-418.457,-23.926,14.160,671182.688,0.031
671182.729,-79.590,-751.465,-21.973,19.531,671182.750,-0.028
671182.733,-7.812,-860.840,-14.160,31.738,671182.750,-0.024
671182.737,99.609,-707.520,-17.578,31.250,671182.750,-0.020
671182.741,66.895,-830.078,-17.578,28.809,671182.750,-0.016
671182.745,-27.344,-778.320,-17.090,5.859,671182.750,-0.012
671182.748,-1.953,-819.824,-26.367,15.137,671182.750,-0.008
671182.752,78.125,-919.922,-23.926,41.504,671182.750,-0.004
671182.756,52.246,-523.926,-18.066,13.672,671182.750,-0.001
671182.760,-52.246,-237.793,-21.973,-7.324,671182.750,0.003
671182.764,-77.148,-204.590,-24.414,-7.812,671182.750,0.001
671182.768,-23.926,-366.211,-24.902,6.348,671182.750,0.005
671182.772,-28.809,-547.852,-21.973,21.973,671182.750,0.009
671182.776,-123.535,-310.059,-25.391,0.000,671182.750,0.012
671182.780,-170.410,-202.637,-22.949,-2.441,671182.750,0.016
671182.784,-82.031,-457.520,-13.672,31.738,671182.750,0.020
671182.787,1.953,-708.496,-12.207,54.199,671182.750,0.024
671182.791,-35.645,-901.855,-8.789,58.594,671182.750,0.028
671182.795,-79.102,-689.453,-9.766,27.344,671182.812,-0.031
671182.799,-12.207,-299.316,-20.996,18.066,671182.812,-0.027
671182.803,80.078,-285.645,-18.555,47.363,671182.812,-0.023
671182.807,47.363,-463.379,-10.742,47.852,671182.812,-0.019
671182.811,-61.035,-650.391,-14.160,21.484,671182.812,-0.001
671182.815,-58.105,-391.113,-19.531,14.648,671182.812,0.002
671182.819,27.344,-238.281,-17.090,39.062,671182.812,0.006
671182.823,13.184,-371.094,-13.672,49.316,671182.812,0.010
671182.827,-74.219,-316.406,-16.602,27.344,671182.812,0.014
671182.830,-70.801,-620.605,-20.020,22.949,671182.812,0.018
671182.834,37.109,-912.598,-20.996,36.621,671182.812,0.022
671182.838,87.402,-749.512,-20.996,37.109,671182.812,0.026
671182.842,9.766,-499.023,-18.066,11.230,671182.812,0.030
671182.846,-47.363,-539.062,-18.555,-2.441,671182.875,-0.029
671182.850,15.625,-908.203,-14.160,30.762,671182.875,-0.025
671182.854,88.867,-771.484,-10.742,39.062,671182.875,-0.021
671182.858,44.922,-335.449,-16.602,12.207,671182.875,-0.024
671182.862,-44.434,-291.504,-16.602,-0.977,671182.875,-0.021
671182.866,-6.348,-265.137,-11.719,12.207,671182.875,-0.017
671182.870,85.449,-473.633,-14.648,43.457,671182.875,-0.013
671182.873,58.105,-570.801,-19.043,31.738,671182.875,-0.009
671182.877,-31.250,-643.555,-15.625,5.371,671182.875,-0.005
671182.881,3.418,-721.191,-16.113,7.324,671182.875,-0.001
671182.885,119.141,-336.426,-19.531,9.277,671182.875,0.003
671182.889,124.512,-594.727,-18.555,17.578,671182.875,0.007
671182.893,28.809,-895.020,-19.531,3.418,671182.875,0.011
671182.897,9.277,-414.062,-26.367,-29.785,671182.875,0.015
671182.901,87.891,-283.691,-25.391,-12.695,671182.875,0.019
671182.905,113.770,-558.594,-26.367,4.395,671182.938,-0.027
671182.909,36.133,-857.910,-28.809,-4.395,671182.938,-0.023
671182.912,-23.438,-729.980,-30.762,-20.020,671182.938,-0.019
671182.916,37.598,-360.840,-32.715,-10.742,671182.938,-0.015
671182.920,107.422,-412.109,-30.762,13.672,671182.938,-0.011
671182.924,58.594,-666.504,-29.297,10.742,671182.938,-0.007
671182.928,-28.320,-883.789,-32.227,-1.953,671182.938,-0.003
671182.932,2.441,-929.688,-37.109,2.441,671182.938,0.000
671182.936,106.934,-626.953,-35.156,10.742,671182.938,0.004
671182.940,102.539,-570.312,-28.320,14.648,671182.938,0.008
671182.944,16.602,-440.918,-26.855,-5.859,671182.938,0.012
671182.948,20.020,-438.477,-24.902,-1.953,671182.938,0.016
671182.952,104.980,-656.250,-27.832,16.602,671182.938,0.013
671182.955,116.211,-428.223,-34.668,17.090,671182.938,0.017
671182.959,39.551,-371.094,-25.391,21.973,671182.938,0.021
671182.963,2.441,-522.461,-16.113,10.742,671182.938,0.025
671182.967,71.289,-474.121,-15.137,6.348,671182.938,0.029
671182.971,107.422,-756.348,-11.719,34.668,671183.000,-0.030
671182.975,31.250,-783.691,-11.230,36.133,671183.000,-0.026
671182.979,-37.598,-481.934,-18.555,19.043,671183.000,-0.022
671182.983,18.066,-371.582,-23.438,24.414,671183.000,-0.018
671182.987,123.535,-341.309,-22.949,36.133,671183.000,-0.014
671182.991,100.586,-812.988,-21.484,45.410,671183.000,-0.010
671182.995,28.320,-796.387,-23.438,20.020,671183.000,-0.006
671182.998,63.477,-375.000,-28.809,1.953,671183.000,0.011
671183.002,147.461,-333.984,-25.879,32.715,671183.000,0.015
671183.006,127.441,-341.309,-24.902,41.504,671183.000,0.018
671183.010,36.621,-540.039,-21.484,29.785,671183.000,0.022
671183.014,48.340,-507.812,-22.949,22.949,671183.000,0.026
671183.018,147.461,-663.086,-25.391,45.898,671183.000,0.030
671183.022,179.688,-865.723,-21.484,56.641,671183.062,-0.028
671183.026,95.215,-792.480,-22.949,34.180,671183.062,-0.025
671183.030,41.992,-953.125,-19.043,40.527,671183.062,-0.021
671183.034,103.516,-817.383,-20.020,61.035,671183.062,-0.017
671183.037,135.742,-466.797,-28.320,58.105,671183.062,-0.013
671183.041,48.828,-417.969,-30.762,49.316,671183.062,-0.009
671183.045,-29.297,-276.855,-43.945,36.621,671183.062,0.008
671183.049,23.926,-511.719,-52.246,50.781,671183.062,0.012
671183.053,104.492,-649.414,-53.711,62.500,671183.062,0.016
671183.057,65.430,-426.758,-52.246,55.664,671183.062,0.020
671183.061,-32.715,-388.184,-53.711,44.434,671183.062,0.024
671183.065,-14.160,-611.816,-58.594,56.152,671183.062,0.028
671183.069,81.055,-925.293,-46.387,85.449,671183.125,-0.031
671183.073,72.266,-780.273,-41.504,71.777,671183.125,-0.027
671183.077,-20.996,-436.035,-41.016,37.598,671183.125,-0.023
671183.080,-40.039,-620.117,-33.203,38.574,671183.125,-0.019
671183.084,37.109,-503.906,-33.203,44.434,671183.125,-0.015
671183.088,59.082,-539.062,-37.109,53.711,671183.125,-0.011
671183.092,-26.855,-787.109,-33.691,38.574,671183.062,0.028
671183.096,-72.266,-493.164,-36.621,10.254,671183.125,-0.031
671183.100,13.184,-407.715,-36.621,25.391,671183.125,-0.027
671183.104,88.379,-316.895,-37.109,31.738,671183.125,-0.023
671183.108,30.273,-443.359,-37.109,26.855,671183.125,-0.019
671183.112,-57.129,-840.332,-30.762,26.855,671183.125,-0.015
671183.116,-20.508,-891.113,-29.785,29.297,671183.125,-0.011
671183.120,65.918,-794.434,-36.621,42.969,671183.125,-0.007
671183.123,41.504,-544.922,-40.527,30.273,671183.125,-0.003
671183.127,-44.922,-415.527,-28.320,16.602,671183.125,0.000
671183.131,-31.250,-741.211,-27.832,25.879,671183.125,0.004
671183.135,71.289,-575.195,-35.645,36.621,671183.125,0.008
671183.139,89.844,-531.738,-28.320,41.016,671183.125,0.005
671183.143,23.438,-570.312,-22.949,21.484,671183.125,0.009
671183.147,30.762,-361.816,-23.926,18.066,671183.125,0.013
671183.151,120.605,-777.832,-18.555,58.105,671183.125,0.017
671183.155,157.227,-946.777,-20.996,65.430,671183.125,0.021
671183.159,81.543,-825.684,-22.949,34.668,671183.125,0.025
671183.162,20.508,-805.176,-22.949,20.996,671183.125,0.029
671183.166,84.961,-452.637,-26.855,26.855,671183.188,-0.030
671183.170,154.297,-683.105,-21.484,66.406,671183.188,-0.026
671183.174,94.727,-925.781,-25.879,60.547,671183.188,-0.022
671183.178,-2.930,-492.676,-38.086,14.648,671183.188,-0.018
671183.182,32.715,-293.457,-35.156,20.020,671183.188,-0.014
671183.186,138.672,-270.996,-27.832,53.223,671183.188,0.004
671183.190,109.375,-543.457,-20.508,57.129,671183.188,0.008
671183.194,5.859,-564.941,-16.602,28.809,671183.188,0.012
671183.198,10.742,-491.211,-23.438,31.738,671183.188,0.016
671183.202,104.980,-552.734,-32.227,51.270,671183.188,0.020
671183.205,142.578,-611.328,-33.691,52.734,671183.188,0.024
671183.209,52.246,-930.664,-32.227,56.152,671183.188,0.028
671183.213,-4.395,-872.559,-33.691,48.340,671183.250,-0.031
671183.217,82.520,-422.363,-29.297,36.133,671183.250,-0.027
671183.221,132.812,-285.156,-18.555,45.898,671183.250,-0.023
671183.225,45.410,-235.840,-15.137,28.809,671183.250,-0.019
671183.229,-27.344,-484.863,-12.207,14.160,671183.250,-0.015
671183.233,33.203,-578.125,-18.066,34.180,671183.250,-0.020
671183.237,119.141,-269.531,-21.973,59.082,671183.250,-0.016
671183.241,73.242,-265.137,-10.742,57.129,671183.250,-0.012
671183.245,-24.902,-253.906,-4.395,31.738,671183.250,-0.008
671183.248,0.488,-498.535,-12.207,42.969,671183.250,-0.004
671183.252,96.680,-929.688,-11.719,71.289,671183.250,0.000
671183.256,81.543,-957.520,-14.648,53.223,671183.250,0.004
671183.260,-9.277,-719.727,-9.277,24.902,671183.250,0.008
671183.264,4.395,-344.238,2.441,20.020,671183.250,0.012
671183.268,93.750,-447.266,-3.906,44.922,671183.250,0.016
671183.272,113.770,-901.855,-9.766,64.453,671183.250,0.020
671183.276,39.551,-675.293,-16.602,34.668,671183.250,0.023
671183.280,-1.953,-380.859,-23.926,19.043,671183.250,0.021
671183.284,69.824,-291.992,-22.949,39.062,671183.250,0.025
671183.287,128.418,-416.016,-9.277,58.105,671183.250,0.029
671183.291,56.641,-762.207,-6.836,51.758,671183.312,-0.030
671183.295,-28.809,-575.684,-8.789,30.762,671183.312,-0.026
671183.299,19.043,-561.035,-5.371,51.270,671183.312,-0.022
671183.303,105.469,-799.805,-11.719,81.055,671183.312,-0.018
671183.307,65.918,-860.840,-17.578,62.500,671183.312,-0.014
671183.311,-38.086,-931.152,-9.766,44.922,671183.312,-0.010
671183.315,-23.438,-936.523,-11.230,39.062,671183.312,-0.007
671183.319,86.426,-622.559,-23.438,41.504,671183.312,-0.003
671183.323,82.520,-386.719,-24.902,44.434,671183.312,0.001
671183.327,-20.020,-417.480,-17.578,23.926,671183.312,0.020
671183.330,-41.504,-621.094,-22.949,10.742,671183.312,0.024
671183.334,33.691,-563.477,-24.902,28.809,671183.312,0.028
671183.338,51.758,-332.520,-16.602,37.109,671183.375,-0.031
671183.342,-32.227,-369.141,-11.230,22.461,671183.375,-0.027
671183.346,-74.219,-638.184,-11.719,17.578,671183.375,-0.023
671183.350,3.906,-962.402,-11.719,49.805,671183.375,-0.019
671183.354,82.031,-812.012,-16.602,58.105,671183.375,-0.015
671183.358,39.062,-496.582,-21.484,29.297,671183.375,-0.011
671183.362,-30.762,-517.090,-20.020,20.996,671183.375,-0.007
671183.366,26.367,-361.328,-21.973,26.855,671183.375,-0.003
671183.370,123.047,-542.480,-14.160,62.012,671183.375,0.000
671183.373,94.727,-783.203,-14.160,59.082,671183.375,0.016
671183.377,6.836,-515.137,-20.508,32.715,671183.375,0.020
671183.381,24.414,-277.832,-18.555,37.109,671183.375,0.024
671183.385,116.211,-287.598,-17.090,53.223,671183.375,0.028
671183.389,103.027,-643.066,-13.184,62.988,671183.438,-0.031
671183.393,-4.395,-950.195,-11.230,46.875,671183.438,-0.027
671183.397,-12.695,-802.246,-15.137,30.273,671183.438,-0.023
671183.401,82.031,-754.883,-12.695,52.246,671183.438,-0.019
671183.405,105.469,-447.754,-13.672,49.316,671183.438,-0.015
671183.409,16.113,-560.547,-10.254,39.062,671183.438,-0.011
671183.412,-52.246,-836.426,-8.789,34.180,671183.438,-0.008
671183.416,4.883,-401.367,-9.766,29.785,671183.438,-0.004
671183.420,82.031,-319.336,-6.348,49.805,671183.438,-0.027
671183.424,41.992,-325.195,-4.395,43.457,671183.438,-0.023
671183.428,-34.180,-502.441,6.348,28.320,671183.438,-0.019
671183.432,7.812,-913.574,11.719,49.805,671183.438,-0.015
671183.436,112.793,-603.516,-7.324,56.152,671183.438,-0.012
671183.440,68.359,-568.359,-23.438,27.832,671183.438,-0.008
671183.444,-46.387,-716.309,-13.184,0.977,671183.438,-0.004
671183.448,-37.109,-555.176,-7.324,0.000,671183.438,0.000
671183.452,53.223,-686.523,-3.418,19.531,671183.438,0.004
671183.455,44.434,-493.652,-4.883,8.301,671183.438,0.008
671183.459,-67.383,-348.145,-13.184,-9.766,671183.438,0.012
671183.463,-107.422,-315.918,-18.066,-6.836,671183.438,0.016
671183.467,-33.691,-376.465,-14.160,19.043,671183.500,-0.030
671183.471,14.648,-869.629,-9.277,61.035,671183.500,-0.026
671183.475,-60.059,-858.887,-14.160,39.551,671183.500,-0.022
671183.479,-126.953,-342.773,-19.531,-6.836,671183.500,-0.018
671183.483,-53.223,-247.070,-18.555,9.766,671183.500,-0.014
671183.487,44.434,-585.938,-13.672,41.992,671183.500,-0.010
671183.491,11.230,-934.082,-6.348,51.270,671183.500,-0.006
671183.495,-57.617,-951.172,-5.859,23.438,671183.500,-0.002
671183.498,-9.766,-622.070,-13.672,5.859,671183.500,0.002
671183.502,78.125,-294.434,-25.391,24.902,671183.500,0.006
671183.506,54.199,-291.016,-24.902,35.156,671183.500,0.009
671183.510,-45.898,-545.898,-12.695,25.879,671183.500,0.013
671183.514,-39.551,-453.125,-10.742,15.137,671183.500,0.011
671183.518,61.523,-174.805,-10.254,35.156,671183.500,0.014
671183.522,80.566,-235.352,-12.695,43.945,671183.500,0.018
671183.526,-3.418,-256.836,-13.184,23.926,671183.500,0.022
671183.530,-40.039,-557.129,-10.742,21.973,671183.500,0.026
671183.534,42.480,-819.824,-9.277,41.504,671183.500,0.030
671183.537,111.816,-617.188,-5.859,50.781,671183.562,-0.028
671183.541,58.594,-417.480,-6.836,32.227,671183.562,-0.025
671183.545,-15.625,-293.945,-7.812,13.672,671183.562,-0.021
671183.549,19.531,-653.809,-3.906,48.340,671183.562,-0.017
671183.553,89.844,-891.602,-5.859,79.590,671183.562,-0.013
671183.557,46.387,-479.980,-15.625,41.504,671183.562,-0.009
671183.561,-49.316,-327.637,-11.719,9.277,671183.562,-0.012
671183.565,-14.160,-262.207,-14.160,21.973,671183.562,-0.008
671183.569,84.473,-582.520,-9.277,63.477,671183.562,-0.004
671183.573,69.824,-729.492,-10.742,60.059,671183.562,-0.000
671183.577,-20.020,-415.527,-14.648,32.227,671183.562,0.004
671183.580,-19.043,-621.094,-10.254,35.645,671183.562,0.008
671183.584,80.078,-795.410,-11.719,51.758,671183.562,0.011
671183.588,102.051,-876.465,-11.719,60.547,671183.562,0.015
671183.592,2.930,-944.824,-14.648,46.387,671183.562,0.019
671183.596,-45.898,-566.895,-18.066,20.996,671183.562,0.023
671183.600,29.297,-309.082,-22.461,27.344,671183.562,0.027
671183.604,87.891,-292.969,-25.879,46.875,671183.562,0.031
671183.608,30.762,-515.625,-20.996,46.387,671183.625,-0.014
671183.612,-51.270,-695.312,-14.648,28.320,671183.625,-0.010
671183.616,-14.648,-355.957,-14.160,32.715,671183.625,-0.006
671183.620,88.379,-242.188,-14.160,73.242,671183.625,-0.002
671183.623,65.430,-358.398,-21.973,74.219,671183.625,0.001
671183.627,-52.734,-627.441,-31.738,29.785,671183.625,0.005
671183.631,-47.363,-907.715,-20.020,31.738,671183.625,0.009
671183.635,54.688,-684.570,-16.602,43.945,671183.625,0.013
671183.639,69.824,-327.148,-21.973,36.621,671183.625,0.017
671183.643,-8.301,-312.988,-20.020,25.879,671183.625,0.021
671183.647,-30.762,-331.543,-21.484,20.020,671183.625,0.025
671183.651,50.781,-479.004,-18.555,38.574,671183.625,0.029
671183.655,95.703,-454.590,-19.043,43.945,671183.625,0.026
671183.659,14.648,-310.547,-28.320,22.461,671183.625,0.030
671183.662,-61.035,-295.898,-30.273,4.883,671183.688,-0.029
671183.666,-17.090,-438.965,-28.320,21.973,671183.688,-0.025
671183.670,38.574,-708.008,-31.250,48.340,671183.688,-0.021
671183.674,-31.738,-781.250,-30.762,33.691,671183.688,-0.017
671183.678,-130.859,-809.082,-27.344,11.719,671183.688,-0.013
671183.682,-83.984,-785.645,-23.438,19.043,671183.688,-0.009
671183.686,29.297,-538.086,-24.902,36.621,671183.688,-0.006
671183.690,20.020,-696.289,-27.344,37.598,671183.688,-0.002
671183.694,-58.594,-680.664,-28.320,14.648,671183.688,0.002
671183.698,-26.855,-293.457,-29.785,12.207,671183.688,0.006
671183.702,72.266,-323.242,-22.461,31.738,671183.688,0.003
671183.705,92.285,-335.938,-18.555,32.227,671183.688,0.007
671183.709,6.348,-689.941,-14.648,35.645,671183.688,0.011
671183.713,-31.250,-803.223,-14.648,30.762,671183.688,0.015
671183.717,53.711,-363.770,-21.484,27.344,671183.688,0.019
671183.721,93.262,-621.094,-21.484,48.340,671183.688,0.023
671183.725,-0.977,-690.430,-25.391,24.902,671183.688,0.027
671183.729,-89.355,-763.672,-24.902,17.578,671183.688,0.031
671183.733,-45.898,-874.512,-20.996,36.621,671183.750,-0.028
671183.737,41.992,-399.902,-27.832,27.344,671183.750,-0.024
671183.741,8.789,-305.664,-32.715,18.555,671183.750,-0.020
671183.745,-77.637,-267.578,-26.855,5.371,671183.750,-0.016
671183.748,-42.480,-364.746,-20.508,15.625,671183.750,0.000
671183.752,49.805,-516.602,-25.391,41.504,671183.750,0.004
671183.756,42.480,-269.043,-22.461,34.668,671183.750,0.008
671183.760,-55.664,-300.293,-20.508,12.207,671183.750,0.012
671183.764,-69.336,-322.266,-25.391,15.625,671183.750,0.016
671183.768,7.324,-570.312,-22.461,44.434,671183.750,0.020
671183.772,11.230,-966.309,-20.020,55.176,671183.750,0.024
671183.776,-83.008,-760.742,-24.902,10.254,671183.750,0.028
671183.780,-129.395,-417.969,-29.297,-11.230,671183.812,-0.031
671183.784,-47.852,-555.176,-28.809,13.184,671183.812,-0.027
671183.787,31.250,-745.117,-26.855,28.809,671183.812,-0.023
671183.791,-17.090,-695.801,-29.297,19.043,671183.812,-0.019
671183.795,-85.449,-375.977,-29.297,-9.766,671183.812,-0.022
671183.799,-18.555,-286.133,-28.320,5.859,671183.812,-0.018
671183.803,84.961,-354.492,-25.879,37.598,671183.812,-0.014
671183.807,50.781,-395.508,-29.785,27.832,671183.812,-0.010
671183.811,-51.270,-623.047,-40.039,3.906,671183.812,-0.007
671183.815,-43.457,-746.582,-35.645,9.277,671183.812,-0.003
671183.819,41.992,-704.102,-32.227,33.691,671183.812,0.001
671183.823,34.180,-462.402,-35.156,26.367,671183.812,0.005
671183.827,-68.848,-265.625,-35.645,-0.977,671183.812,0.009
671183.830,-83.008,-703.613,-29.785,12.207,671183.812,0.013
671183.834,21.973,-795.898,-28.809,22.949,671183.812,0.017
671183.838,72.266,-371.094,-34.180,8.789,671183.812,0.021
671183.842,5.859,-534.668,-33.691,-0.488,671183.812,0.018
671183.846,-32.715,-517.090,-34.180,-15.625,671183.812,0.022
671183.850,40.039,-642.578,-31.738,12.695,671183.812,0.026
671183.854,107.910,-658.203,-30.273,29.297,671183.812,0.030
671183.858,43.457,-369.629,-30.762,3.418,671183.875,-0.029
671183.862,-53.223,-615.723,-27.344,-7.812,671183.875,-0.025
671183.866,-20.508,-690.918,-32.227,-1.465,671183.875,-0.021
671183.870,58.105,-887.207,-27.832,34.668,671183.875,-0.017
671183.873,34.668,-873.047,-29.297,34.668,671183.875,-0.013
671183.877,-45.898,-485.840,-34.668,-3.906,671183.875,-0.009
671183.881,-21.484,-354.492,-27.344,0.977,671183.875,-0.006
671183.885,87.402,-202.148,-26.855,32.227,671183.875,-0.002
671183.889,88.379,-442.383,-24.902,46.875,671183.875,0.015
671183.893,-3.418,-589.355,-26.367,24.414,671183.875,0.019
671183.897,-12.207,-291.016,-28.809,13.184,671183.875,0.023
671183.901,79.590,-479.004,-22.461,41.016,671183.875,0.027
671183.905,129.883,-576.660,-16.602,53.223,671183.875,0.031
671183.909,47.852,-725.586,-17.090,41.992,671183.938,-0.028
671183.912,-27.832,-947.266,-18.066,31.250,671183.938,-0.024
671183.916,46.387,-548.340,-18.555,22.461,671183.938,-0.020
671183.920,128.418,-321.777,-17.578,37.109,671183.938,-0.016
671183.924,75.195,-292.480,-19.531,26.367,671183.938,-0.012
671183.928,-10.742,-514.648,-19.043,0.977,671183.938,-0.008
671183.932,34.668,-657.227,-13.184,10.254,671183.938,-0.004
671183.936,141.113,-405.273,-20.508,38.086,671183.938,-0.007
671183.940,108.887,-436.035,-22.461,29.297,671183.938,-0.003
671183.944,-20.996,-411.133,-21.973,-17.578,671183.938,0.001
671183.948,-18.555,-493.164,-26.855,-10.742,671183.938,0.004
671183.952,93.262,-690.430,-25.391,27.832,671183.938,0.008
671183.955,104.980,-828.125,-21.484,23.438,671183.938,0.012
671183.959,13.672,-995.605,-20.996,-0.977,671183.938,0.016
671183.963,8.789,-936.523,-22.949,1.953,671183.938,0.020
671183.967,100.098,-844.238,-11.230,17.090,671183.938,0.024
671183.971,144.043,-935.059,-0.977,45.898,671183.938,0.028
671183.975,84.961,-803.223,-2.930,37.598,671184.000,-0.031
671183.979,27.832,-474.609,-7.324,-5.859,671184.000,-0.027
671183.983,81.543,-355.957,-11.719,1.953,671184.000,-0.030
671183.987,163.086,-407.227,-20.996,32.715,671184.000,-0.026
671183.991,111.816,-746.582,-15.625,42.969,671184.000,-0.022
671183.995,11.230,-745.605,-8.301,27.344,671184.000,-0.018
671183.998,53.223,-562.988,-19.531,41.504,671184.000,-0.014
671184.002,158.203,-845.703,-25.879,76.660,671184.000,-0.010
671184.006,154.785,-937.988,-18.066,83.984,671184.000,-0.006
671184.010,53.711,-970.703,-15.137,84.473,671184.000,-0.002
671184.014,66.895,-831.055,-18.555,91.797,671184.000,0.002
671184.018,186.035,-601.562,-27.832,107.910,671184.000,0.005
671184.022,207.520,-654.785,-21.973,126.953,671184.000,0.009
671184.026,110.352,-417.480,-17.090,94.238,671184.000,0.013
671184.030,56.641,-544.434,-21.973,76.660,671184.000,0.030
671184.034,140.625,-607.422,-19.531,101.562,671184.062,-0.028
671184.037,184.570,-402.832,-18.555,108.398,671184.062,-0.024
671184.041,104.492,-371.094,-21.484,88.867,671184.062,-0.020
671184.045,23.438,-384.766,-28.809,73.242,671184.062,-0.016
671184.049,57.617,-728.516,-30.762,97.656,671184.062,-0.012
671184.053,145.996,-1000.000,-26.855,126.465,671184.062,-0.009
671184.057,136.230,-905.273,-28.809,104.004,671184.062,-0.005
671184.061,71.777,-579.102,-28.320,66.895,671184.062,-0.001
671184.065,112.793,-298.340,-26.367,67.383,671184.062,0.003
671184.069,191.406,-575.684,-20.996,97.168,671184.062,0.007
671184.073,173.828,-822.266,-18.066,105.469,671184.062,0.011
671184.077,89.355,-657.227,-20.996,81.055,671184.062,0.008
671184.080,76.660,-668.945,-20.996,70.312,671184.062,0.012
671184.084,157.227,-455.078,-22.461,85.938,671184.062,0.016
671184.088,166.016,-574.707,-28.320,100.098,671184.062,0.020
671184.092,68.848,-783.203,-33.691,82.520,671184.062,0.024
671184.096,13.672,-782.227,-32.227,70.801,671184.062,0.027
671184.100,75.684,-853.516,-32.227,86.426,671184.125,-0.031
671184.104,130.859,-562.500,-32.715,83.496,671184.125,-0.027
671184.108,62.988,-503.906,-29.785,67.383,671184.125,-0.023
671184.112,-22.461,-917.480,-27.344,65.918,671184.125,-0.019
671184.116,29.785,-720.703,-24.414,64.453,671184.125,-0.016
671184.120,135.254,-391.602,-24.414,74.219,671184.125,-0.012
671184.123,117.676,-392.090,-28.320,78.613,671184.125,0.026
671184.127,18.555,-513.672,-33.203,55.664,671184.125,0.029
671184.131,25.391,-671.387,-28.320,59.082,671184.188,-0.029
671184.135,109.863,-615.723,-31.250,76.660,671184.188,-0.025
671184.139,111.816,-677.246,-36.133,77.637,671184.188,-0.021
671184.143,42.480,-795.898,-26.855,70.312,671184.188,-0.017
671184.147,20.020,-823.730,-28.809,56.641,671184.188,-0.013
671184.151,83.984,-877.441,-35.645,47.363,671184.188,-0.010
671184.155,113.770,-666.016,-34.180,37.598,671184.188,-0.006
671184.159,23.438,-360.352,-33.691,17.090,671184.188,-0.002
671184.162,-51.758,-279.297,-36.133,4.883,671184.188,0.002
671184.166,1.465,-246.582,-34.668,23.926,671184.188,0.006
671184.170,49.316,-652.344,-31.738,45.898,671184.188,0.023
671184.174,-4.395,-681.152,-31.250,27.832,671184.188,0.027
671184.178,-70.312,-345.703,-32.715,8.301,671184.188,0.031
671184.182,-20.996,-290.039,-34.180,21.484,671184.250,-0.028
671184.186,80.566,-318.359,-33.203,53.711,671184.250,-0.024
671184.190,66.895,-733.398,-29.297,69.824,671184.250,-0.020
671184.194,-25.391,-978.027,-32.227,42.480,671184.250,-0.016
671184.198,-18.555,-666.016,-34.668,35.156,671184.250,-0.012
671184.202,73.730,-452.148,-29.785,54.688,671184.250,-0.008
671184.205,81.543,-395.020,-24.902,54.199,671184.250,-0.004
671184.209,-29.297,-645.020,-24.902,41.016,671184.250,-0.001
671184.213,-85.449,-776.855,-32.227,18.555,671184.250,0.003
671184.217,-5.859,-369.141,-42.480,7.812,671184.188,0.025
671184.221,41.504,-372.070,-38.574,29.297,671184.188,0.029
671184.225,-36.621,-348.633,-31.738,16.602,671184.250,-0.029
671184.229,-104.004,-580.078,-31.250,6.836,671184.250,-0.025
671184.233,-43.457,-888.672,-26.855,27.344,671184.250,-0.022
671184.237,44.434,-805.664,-31.738,34.668,671184.250,-0.018
671184.241,15.625,-880.371,-34.180,26.855,671184.250,-0.014
671184.245,-57.617,-856.445,-30.762,8.301,671184.250,-0.010
671184.248,-37.109,-814.453,-27.344,22.949,671184.250,-0.006
671184.252,41.016,-932.129,-24.902,48.340,671184.250,-0.002
671184.256,23.926,-764.160,-26.367,31.250,671184.250,0.002
671184.260,-83.984,-494.629,-29.297,-1.953,671184.250,0.006
671184.264,-85.449,-333.008,-31.738,-5.859,671184.250,0.001
671184.268,16.113,-427.246,-26.367,28.809,671184.250,0.005
671184.272,45.410,-872.070,-24.902,43.457,671184.250,0.009
671184.276,-27.832,-659.180,-29.297,6.836,671184.250,0.013
671184.280,-67.871,-368.652,-26.367,-3.418,671184.250,0.016
671184.284,4.883,-612.305,-27.832,22.949,671184.250,0.020
671184.287,65.918,-766.113,-27.344,32.227,671184.250,0.024
671184.291,17.578,-913.574,-22.461,39.551,671184.250,0.028
671184.295,-14.648,-988.281,-25.879,25.391,671184.312,-0.030
671184.299,99.609,-532.227,-31.738,7.324,671184.312,-0.027
671184.303,240.234,-210.938,-35.645,24.414,671184.312,-0.023
671184.307,242.676,-303.711,-31.250,22.461,671184.312,-0.019
671184.311,166.992,-624.512,-19.531,15.137,671184.312,0.018
671184.315,178.223,-568.359,-18.066,21.484,671184.312,0.022
671184.319,224.121,-270.020,-20.020,42.480,671184.312,0.026
671184.323,141.602,-227.539,-19.531,42.480,671184.312,0.029
671184.327,-39.551,-276.367,-20.508,26.855,671184.375,-0.029
671184.330,-142.578,-669.922,-22.461,36.621,671184.375,-0.025
671184.334,-127.930,-774.414,-20.508,48.828,671184.375,-0.021
671184.338,-149.414,-664.551,-26.367,42.969,671184.375,-0.017
671184.342,-238.770,-506.348,-38.086,30.762,671184.375,-0.014
671184.346,-286.133,-251.953,-30.273,22.461,671184.375,-0.010
671184.350,-233.398,-685.547,-9.766,45.898,671184.375,-0.006
671184.354,-156.738,-818.359,-6.348,60.059,671184.375,-0.002
671184.358,-177.734,-373.535,-17.090,46.387,671184.375,-0.025
671184.362,-222.168,-284.180,-26.367,31.250,671184.375,-0.021
671184.366,-168.457,-155.762,-26.855,25.391,671184.375,-0.017
671184.370,-85.938,-529.785,-20.508,41.992,671184.375,-0.013
671184.373,-101.562,-742.188,-24.414,29.297,671184.375,-0.009
671184.377,-194.824,-620.117,-30.273,4.883,671184.375,-0.005
671184.381,-201.660,-575.195,-31.250,12.695,671184.375,-0.001
671184.385,-134.277,-174.316,-30.762,33.691,671184.375,0.003
671184.389,-146.973,-519.531,-23.438,51.270,671184.375,0.007
671184.393,-234.375,-734.375,-22.461,28.320,671184.375,0.010
671184.397,-257.812,-167.969,-29.297,1.953,671184.375,0.014
671184.401,-182.617,-138.184,-26.367,25.879,671184.375,0.018
671184.405,-126.953,-168.945,-24.414,32.715,671184.375,0.016
671184.409,-164.551,-416.992,-28.809,22.461,671184.375,0.020
671184.412,-171.875,-935.547,-26.855,13.672,671184.375,0.023
671184.416,-45.410,-596.191,-22.949,-0.488,671184.375,0.027
671184.420,76.660,-187.988,-18.066,15.137,671184.438,-0.031
671184.424,51.270,-488.281,-16.602,13.184,671184.438,-0.027
671184.428,-33.203,-773.438,-23.926,-4.395,671184.438,-0.023
671184.432,-24.414,-956.055,-22.949,14.648,671184.438,-0.019
671184.436,46.387,-720.215,-20.020,18.066,671184.438,-0.016
671184.440,32.227,-324.219,-26.855,-5.371,671184.438,-0.012
671184.444,-39.551,-206.055,-26.855,-21.973,671184.438,-0.008
671184.448,-9.766,-312.988,-24.414,-14.648,671184.438,-0.004
671184.452,97.656,-518.066,-26.367,1.953,671184.438,0.013
671184.455,136.719,-293.457,-27.832,-5.859,671184.438,0.017
671184.459,83.008,-196.777,-31.250,-29.297,671184.438,0.021
671184.463,73.730,-204.102,-34.180,-33.203,671184.438,0.025
671184.467,160.156,-260.254,-31.250,-3.418,671184.438,0.029
671184.471,189.941,-739.258,-27.832,15.137,671184.500,-0.030
671184.475,98.633,-788.086,-29.785,-2.441,671184.500,-0.026
671184.479,21.484,-390.625,-20.996,-16.602,671184.500,-0.022
671184.483,57.129,-323.730,-21.973,2.930,671184.500,-0.018
671184.487,121.094,-439.941,-20.996,28.809,671184.500,-0.014
671184.491,77.637,-806.641,-12.695,41.504,671184.500,-0.010
671184.495,0.488,-725.098,-12.207,19.531,671184.500,-0.006
671184.498,39.551,-365.234,-12.207,12.695,671184.500,-0.008
671184.502,128.418,-326.172,-16.602,39.551,671184.500,-0.004
671184.506,131.348,-473.633,-16.602,43.457,671184.500,-0.000
671184.510,79.102,-758.789,-15.625,32.227,671184.500,0.004
671184.514,110.352,-648.438,-23.438,34.668,671184.500,0.008
671184.518,207.520,-670.898,-26.855,51.758,671184.500,0.012
671184.522,227.051,-886.230,-20.020,60.547,671184.500,0.016
671184.526,142.090,-894.531,-17.578,45.410,671184.500,0.019
671184.530,100.098,-934.082,-20.996,33.691,671184.500,0.023
671184.534,163.086,-668.457,-23.926,41.016,671184.500,0.027
671184.537,203.125,-381.348,-27.832,51.270,671184.500,0.031
671184.541,131.836,-416.504,-24.902,37.109,671184.562,-0.027
671184.545,59.570,-461.426,-22.949,18.555,671184.500,0.030
671184.549,107.910,-792.480,-23.438,46.875,671184.562,-0.028
671184.553,177.734,-855.957,-24.902,57.617,671184.562,-0.024
671184.557,136.719,-490.234,-27.832,37.598,671184.562,-0.020
671184.561,63.477,-482.422,-27.344,25.879,671184.562,-0.016
671184.565,101.074,-744.629,-29.785,28.320,671184.562,-0.012
671184.569,172.852,-906.250,-29.297,49.316,671184.562,-0.009
671184.573,160.645,-1000.000,-26.855,57.617,671184.562,-0.005
671184.577,83.496,-724.609,-30.762,11.719,671184.562,-0.001
671184.580,83.496,-375.000,-32.715,-6.348,671184.562,0.003
671184.584,166.992,-314.453,-32.227,12.695,671184.562,0.007
671184.588,186.035,-511.719,-33.203,16.113,671184.562,0.011
671184.592,114.746,-700.195,-26.855,1.465,671184.562,0.028
671184.596,78.125,-435.547,-29.785,-10.254,671184.625,-0.031
671184.600,142.090,-386.230,-38.574,14.648,671184.625,-0.027
671184.604,183.594,-515.625,-40.039,26.367,671184.625,-0.023
671184.608,112.793,-795.410,-27.344,2.930,671184.625,-0.019
671184.612,52.246,-958.008,-16.602,-10.254,671184.625,-0.015
671184.616,117.188,-943.848,-22.949,2.930,671184.625,-0.011
671184.620,202.637,-857.422,-26.855,11.230,671184.625,-0.007
671184.623,180.664,-677.734,-28.320,-0.977,671184.625,-0.003
671184.627,112.305,-719.238,-28.809,-12.695,671184.625,0.000
671184.631,139.648,-857.910,-25.879,-1.465,671184.625,0.004
671184.635,222.168,-612.793,-33.691,4.883,671184.625,0.008
671184.639,211.426,-396.973,-36.621,3.418,671184.625,0.005
671184.643,122.559,-443.359,-38.086,-3.906,671184.625,0.009
671184.647,98.145,-416.992,-38.574,-7.812,671184.625,0.013
671184.651,152.344,-587.402,-34.668,11.719,671184.625,0.017
671184.655,155.762,-545.898,-38.086,23.926,671184.625,0.021
671184.659,54.688,-684.082,-36.133,14.160,671184.625,0.025
671184.663,-16.113,-878.418,-33.203,2.930,671184.625,0.029
671184.666,39.062,-747.070,-37.109,18.066,671184.688,-0.030
671184.670,111.816,-890.625,-34.668,51.270,671184.688,-0.026
671184.674,75.684,-850.586,-34.668,42.480,671184.688,-0.022
671184.678,-3.418,-422.363,-41.016,1.953,671184.688,-0.018
671184.682,29.297,-362.793,-34.668,6.836,671184.688,-0.014
671184.686,101.074,-355.957,-32.227,28.809,671184.688,0.003
671184.690,62.988,-618.164,-31.738,29.297,671184.688,0.007
671184.694,-18.066,-683.594,-32.227,5.859,671184.688,0.011
671184.698,-4.883,-345.215,-27.832,15.625,671184.688,0.015
671184.702,73.242,-391.602,-21.484,47.852,671184.688,0.019
671184.705,72.754,-684.570,-20.996,55.664,671184.688,0.023
671184.709,-22.949,-959.961,-20.508,52.734,671184.688,0.026
671184.713,-54.199,-896.973,-20.996,44.922,671184.688,0.030
671184.717,32.715,-485.352,-29.297,40.039,671184.750,-0.028
671184.721,71.289,-391.113,-26.855,50.293,671184.750,-0.024
671184.725,-7.324,-643.555,-26.367,39.551,671184.750,-0.020
671184.729,-81.055,-870.605,-31.250,24.902,671184.750,-0.016
671184.733,-36.621,-714.844,-31.250,31.738,671184.750,-0.020
671184.737,31.250,-379.883,-29.297,35.645,671184.750,-0.016
671184.741,-17.578,-406.738,-29.297,21.973,671184.750,-0.012
671184.745,-110.352,-336.914,-31.250,4.395,671184.750,-0.008
671184.748,-94.238,-421.875,-37.598,16.113,671184.750,-0.004
671184.752,-14.648,-810.059,-39.551,42.969,671184.750,-0.000
671184.756,-21.484,-722.656,-30.762,35.645,671184.750,0.004
671184.760,-102.051,-478.516,-32.715,7.324,671184.750,0.008
671184.764,-102.051,-299.805,-39.551,2.441,671184.750,0.012
671184.768,-16.113,-366.211,-37.598,26.855,671184.750,0.015
671184.772,0.000,-829.102,-35.645,44.434,671184.750,0.019
671184.776,-82.031,-640.625,-39.062,11.230,671184.750,0.023
671184.780,-134.766,-327.637,-38.574,-13.184,671184.750,0.021
671184.784,-78.613,-461.426,-38.574,2.441,671184.750,0.025
671184.788,-28.809,-526.367,-38.574,17.578,671184.750,0.028
671184.791,-92.773,-597.168,-34.668,8.789,671184.812,-0.030
671184.795,-161.133,-419.434,-35.645,-12.207,671184.812,-0.026
671184.799,-112.305,-544.922,-35.156,2.441,671184.812,-0.022
671184.803,-25.391,-797.363,-32.715,29.785,671184.812,-0.018
671184.807,-47.363,-780.273,-31.738,23.438,671184.812,-0.015
671184.811,-120.605,-938.477,-27.832,15.137,671184.812,-0.011
671184.815,-83.008,-715.820,-32.227,5.371,671184.812,-0.007
671184.819,13.672,-309.082,-39.551,0.488,671184.812,-0.003
671184.823,10.254,-258.301,-39.551,12.207,671184.812,0.001
671184.827,-68.359,-240.234,-38.086,0.977,671184.812,0.018
671184.830,-77.148,-441.895,-31.738,-2.441,671184.812,0.022
671184.834,-1.465,-382.324,-26.367,18.555,671184.812,0.026
671184.838,20.996,-418.945,-24.414,39.551,671184.812,0.030
671184.842,-59.570,-641.113,-24.902,21.484,671184.875,-0.029
671184.846,-98.145,-677.246,-25.879,4.883,671184.875,-0.025
671184.850,-31.738,-883.789,-19.531,42.969,671184.875,-0.021
671184.854,36.133,-801.758,-23.438,55.664,671184.875,-0.017
671184.858,-1.953,-422.363,-38.086,12.695,671184.875,-0.013
671184.862,-77.637,-335.938,-35.645,-3.906,671184.875,-0.009
671184.866,-46.387,-223.633,-31.250,13.184,671184.875,-0.005
671184.870,9.277,-520.508,-31.250,41.504,671184.875,-0.001
671184.873,-50.781,-609.375,-32.715,32.715,671184.938,-0.027
671184.877,-164.551,-349.609,-31.738,9.766,671184.938,-0.023
671184.881,-161.133,-315.918,-30.273,17.578,671184.938,-0.019
671184.885,-76.172,-258.789,-28.809,37.598,671184.938,-0.015
671184.889,-71.777,-531.738,-22.461,50.293,671184.938,-0.011
671184.893,-136.230,-881.348,-19.043,41.992,671184.938,-0.007
671184.897,-127.441,-791.992,-19.531,37.598,671184.938,-0.003
671184.901,-26.855,-757.812,-18.066,47.363,671184.938,0.001
671184.905,22.461,-635.742,-19.531,41.992,671184.938,0.005
671184.909,-49.316,-641.602,-18.066,28.809,671184.938,0.008
671184.913,-101.562,-743.652,-17.578,15.137,671184.938,0.012
671184.916,-28.320,-397.949,-19.531,16.602,671184.938,0.016
671184.920,25.391,-335.938,-19.043,30.273,671184.938,-0.024
671184.924,-27.832,-254.395,-22.461,20.508,671184.938,-0.020
671184.928,-93.750,-420.898,-23.926,13.184,671184.938,-0.016
671184.932,-54.688,-683.105,-23.926,20.996,671184.938,-0.012
671184.936,38.086,-423.828,-27.832,37.109,671184.938,-0.008
671184.940,24.414,-627.930,-28.320,32.227,671184.938,-0.004
671184.944,-31.738,-743.652,-28.320,9.766,671184.938,-0.000
671184.948,12.207,-547.363,-28.320,13.672,671184.938,0.004
671184.952,97.656,-631.348,-24.902,24.902,671184.938,0.007
671184.955,101.562,-588.379,-27.832,20.996,671184.938,0.011
671184.959,26.367,-697.754,-30.762,5.371,671184.938,0.015
671184.963,-1.465,-481.445,-38.086,-13.672,671184.938,0.019
671184.967,65.918,-292.480,-33.691,5.371,671185.000,0.023
671184.971,86.914,-647.461,-26.367,24.902,671185.000,0.027
671184.975,-0.977,-596.191,-31.250,-1.953,671185.000,0.031
671184.979,-67.383,-253.418,-29.297,-20.020,671185.062,-0.028
671184.983,-12.207,-257.324,-26.367,-0.977,671185.062,-0.024
671184.987,44.434,-624.023,-32.227,12.695,671185.062,-0.020
671184.991,-9.277,-914.551,-28.320,22.461,671185.062,-0.016
671184.995,-84.473,-1000.000,-22.461,20.020,671185.062,-0.012
671184.998,-41.016,-714.844,-29.785,-8.789,671185.062,-0.009
671185.002,51.270,-332.031,-33.203,-0.977,671185.062,-0.005
671185.006,39.062,-287.598,-35.645,0.488,671185.062,-0.001
671185.010,-41.504,-492.188,-33.203,-11.230,671185.062,0.003
671185.014,-31.738,-514.160,-27.344,-8.789,671185.000,0.023
671185.018,43.945,-501.465,-28.320,7.324,671185.000,0.027
671185.022,46.875,-527.832,-30.273,11.230,671185.000,0.031
671185.026,-14.160,-325.684,-30.273,8.301,671185.062,-0.028
671185.030,-36.621,-555.176,-27.344,18.555,671185.062,-0.024
671185.034,19.531,-867.188,-23.926,24.414,671185.062,-0.020
671185.038,42.969,-671.387,-24.414,19.531,671185.062,-0.016
671185.041,-26.367,-414.551,-16.602,-3.906,671185.062,-0.012
671185.045,-71.289,-327.148,-14.160,-20.996,671185.062,-0.008
671185.049,-10.254,-697.266,-10.742,16.602,671185.062,-0.004
671185.053,61.035,-960.449,-11.719,41.504,671185.062,-0.001
671185.057,23.926,-550.781,-22.461,0.488,671185.062,0.003
671185.061,-54.199,-346.680,-24.902,-16.602,671185.062,-0.012
671185.065,-22.461,-261.230,-32.715,-3.906,671185.062,-0.008
671185.069,45.410,-446.289,-39.551,17.578,671185.062,-0.004
671185.073,3.418,-693.359,-36.133,20.020,671185.062,-0.000
671185.077,-110.352,-676.758,-30.273,4.395,671185.062,0.003
671185.080,-137.207,-783.691,-29.785,10.254,671185.062,0.007
671185.084,-61.035,-711.426,-34.668,23.438,671185.062,0.011
671185.088,-36.133,-778.809,-33.203,31.250,671185.062,0.015
671185.092,-90.332,-939.453,-27.344,26.855,671185.062,0.019
671185.096,-92.773,-541.016,-28.809,-3.906,671185.062,0.023
671185.100,-3.906,-228.027,-35.156,4.883,671185.062,0.027
671185.104,56.641,-246.582,-33.203,25.391,671185.062,0.031
671185.108,4.395,-369.141,-26.855,20.508,671185.125,0.004
671185.112,-62.988,-596.191,-26.855,11.230,671185.125,0.008
671185.116,-16.602,-354.980,-27.832,8.301,671185.125,0.011
671185.120,57.617,-166.504,-28.809,23.438,671185.125,0.015
671185.123,27.344,-252.930,-34.180,20.020,671185.125,0.019
671185.127,-60.059,-550.293,-30.762,6.348,671185.125,0.023
671185.131,-71.289,-842.773,-31.738,6.836,671185.125,0.027
671185.135,-10.254,-778.809,-35.645,17.578,671185.125,0.031
671185.139,-26.367,-465.820,-30.762,13.184,671185.188,-0.028
671185.143,-127.441,-232.422,-31.250,-8.789,671185.188,-0.024
671185.147,-150.879,-190.918,-27.344,-7.324,671185.188,-0.020
671185.151,-63.965,-582.520,-21.484,23.438,671185.188,-0.016
671185.155,-11.719,-604.004,-25.879,21.484,671185.125,0.026
671185.159,-58.594,-280.273,-29.785,-1.465,671185.125,0.030
671185.163,-74.707,-233.398,-30.273,-6.348,671185.188,-0.029
671185.166,20.508,-159.668,-27.832,13.184,671185.188,-0.025
671185.170,93.750,-598.633,-20.020,45.898,671185.188,-0.021
671185.174,37.109,-931.152,-20.996,27.832,671185.188,-0.017
671185.178,-27.344,-781.250,-23.926,-0.488,671185.188,-0.013
671185.182,4.883,-736.816,-21.973,10.742,671185.188,-0.009
671185.186,75.684,-415.039,-22.461,19.531,671185.188,-0.005
671185.190,42.480,-637.207,-20.996,32.715,671185.188,-0.002
671185.194,-44.922,-937.988,-18.066,12.695,671185.188,0.002
671185.198,0.977,-415.527,-20.508,-14.648,671185.188,0.006
671185.202,103.516,-194.336,-26.855,13.184,671185.188,0.023
671185.205,120.605,-189.453,-24.902,18.555,671185.188,0.027
671185.209,50.293,-532.227,-22.949,0.977,671185.188,0.031
671185.213,30.273,-564.453,-29.297,-8.301,671185.250,-0.028
671185.217,109.863,-214.844,-27.832,8.301,671185.250,-0.024
671185.221,137.695,-560.059,-20.996,32.227,671185.250,-0.020
671185.225,68.359,-550.293,-20.996,11.719,671185.250,-0.016
671185.229,-4.883,-585.449,-19.043,13.184,671185.250,-0.012
671185.233,32.715,-906.738,-12.207,37.598,671185.250,-0.008
671185.237,115.723,-497.559,-16.602,36.133,671185.250,-0.004
671185.241,72.266,-323.730,-22.461,29.297,671185.250,-0.001
671185.245,-5.859,-281.250,-23.926,8.301,671185.250,0.003
671185.248,22.461,-429.688,-27.832,18.066,671185.250,0.002
671185.252,113.770,-708.008,-34.668,36.133,671185.250,0.005
671185.256,108.887,-508.789,-34.668,26.855,671185.250,0.009
671185.260,23.926,-410.645,-25.879,12.207,671185.250,0.013
671185.264,33.691,-298.828,-24.902,12.207,671185.250,0.017
671185.268,106.934,-621.094,-20.020,46.875,671185.250,0.021
671185.272,108.887,-937.500,-16.602,59.570,671185.250,0.025
671185.276,33.203,-790.039,-22.461,26.855,671185.250,0.029
671185.280,-0.977,-515.137,-18.555,16.602,671185.312,-0.030
671185.284,57.129,-242.188,-20.020,29.785,671185.312,-0.026
671185.288,96.191,-383.301,-21.484,51.270,671185.312,-0.022
671185.291,31.250,-701.660,-18.066,48.828,671185.312,-0.018
671185.295,-32.715,-456.543,-16.602,23.438,671185.312,-0.022
671185.299,16.602,-232.422,-19.043,32.715,671185.312,-0.018
671185.303,107.910,-230.469,-20.996,46.875,671185.312,-0.014
671185.307,89.355,-333.496,-18.555,48.340,671185.312,-0.010
671185.311,0.977,-757.324,-19.043,36.133,671185.312,-0.006
671185.315,29.297,-912.109,-20.996,35.156,671185.312,-0.002
671185.319,121.582,-711.426,-20.020,48.340,671185.312,0.002
671185.323,105.469,-476.074,-16.113,43.457,671185.312,0.006
671185.327,10.742,-370.605,-16.602,22.461,671185.312,0.010
671185.330,-14.160,-747.559,-10.742,38.086,671185.312,0.013
671185.334,45.898,-915.527,-16.602,54.199,671185.312,0.017
671185.338,56.152,-478.027,-28.320,26.367,671185.312,0.021
671185.342,-21.973,-330.078,-19.043,19.531,671185.312,0.018
671185.346,-61.523,-339.355,-18.066,18.555,671185.312,0.022
671185.350,6.348,-539.062,-20.508,34.668,671185.312,0.026
671185.354,68.359,-527.832,-20.508,41.504,671185.312,0.030
671185.358,9.766,-395.996,-20.996,28.809,671185.375,-0.029
671185.362,-68.359,-650.391,-17.090,24.902,671185.375,-0.025
671185.366,-22.461,-768.555,-13.672,27.344,671185.375,-0.021
671185.370,68.848,-899.902,-14.648,61.035,671185.375,-0.017
671185.373,51.270,-890.137,-21.973,54.199,671185.375,-0.013
671185.377,-19.531,-443.848,-20.508,4.395,671185.375,-0.009
671185.381,7.812,-208.984,-13.672,13.672,671185.375,-0.006
671185.385,95.215,-205.078,-13.184,38.086,671185.375,-0.002
671185.389,88.867,-577.148,-12.695,42.969,671185.375,0.015
671185.393,2.930,-640.137,-17.578,22.461,671185.375,0.019
671185.397,-20.996,-252.930,-23.438,10.742,671185.375,0.023
671185.401,47.852,-236.816,-24.902,24.414,671185.375,0.027
671185.405,75.684,-228.027,-20.996,33.203,671185.375,0.031
671185.409,-0.488,-624.023,-7.324,46.875,671185.438,-0.028
671185.413,-45.410,-924.316,-11.230,55.664,671185.438,-0.024
671185.416,6.836,-526.855,-34.668,24.414,671185.438,-0.020
671185.420,31.250,-370.605,-35.645,-0.977,671185.438,-0.016
671185.424,-37.109,-389.160,-34.668,-24.414,671185.438,-0.012
671185.428,-130.859,-693.848,-36.621,-50.293,671185.438,-0.008
671185.432,-120.605,-822.266,-35.156,-57.617,671185.438,-0.004
671185.436,-48.340,-465.332,-36.133,-55.176,671185.438,-0.007
671185.440,-114.746,-432.129,-44.434,-92.773,671185.438,-0.003
671185.444,-223.145,-459.961,-42.480,-130.859,671185.438,0.001
671185.448,-224.609,-491.699,-41.016,-144.043,671185.438,0.005
671185.452,-154.785,-678.711,-45.410,-145.508,671185.438,0.008
671185.455,-140.625,-813.477,-41.504,-143.555,671185.438,0.012
671185.459,-253.418,-886.719,-43.457,-189.453,671185.438,0.016
671185.463,-279.297,-827.148,-42.969,-202.637,671185.438,0.020
671185.467,-203.613,-594.727,-47.852,-195.801,671185.438,0.024
671185.471,-165.527,-833.984,-49.316,-174.316,671185.438,0.028
671185.475,-211.426,-809.082,-48.828,-190.918,671185.500,-0.031
671185.479,-295.898,-373.047,-60.059,-243.652,671185.500,-0.027
671185.483,-226.074,-378.418,-57.617,-198.730,671185.500,-0.013
671185.487,-144.043,-655.762,-53.223,-175.293,671185.500,-0.009
671185.491,-194.824,-887.207,-52.734,-171.875,671185.500,-0.006
671185.495,-251.465,-601.562,-49.805,-151.855,671185.500,-0.002
671185.498,-215.332,-398.926,-50.293,-142.578,671185.500,0.002
671185.502,-126.465,-678.223,-46.875,-100.098,671185.500,0.006
671185.506,-133.301,-730.469,-47.852,-72.754,671185.500,0.010
671185.510,-226.562,-856.934,-47.363,-60.547,671185.500,0.014
671185.514,-207.031,-819.336,-48.340,-50.781,671185.500,0.018
671185.518,-83.984,-360.352,-48.340,-30.762,671185.500,0.022
671185.522,-50.781,-323.730,-41.016,-1.465,671185.500,0.026
671185.526,-120.605,-302.246,-38.086,-1.953,671185.500,0.030
671185.530,-157.715,-492.188,-39.062,0.977,671185.500,0.031
671185.534,-69.336,-499.023,-45.410,26.855,671185.562,-0.028
671185.538,12.207,-218.262,-48.340,46.875,671185.562,-0.024
671185.541,-34.668,-280.762,-42.969,39.062,671185.562,-0.020
671185.545,-84.473,-410.156,-41.016,35.156,671185.562,-0.016
671185.549,-28.809,-723.145,-39.062,54.199,671185.562,-0.012
671185.553,46.875,-916.016,-40.039,74.707,671185.562,-0.009
671185.557,14.648,-682.129,-43.457,50.293,671185.562,-0.005
671185.561,-74.219,-438.965,-42.480,22.461,671185.562,-0.001
671185.565,-60.059,-157.715,-35.645,30.762,671185.562,0.003
671185.569,20.508,-418.945,-28.809,66.406,671185.562,0.007
671185.573,-8.301,-758.301,-26.855,82.520,671185.562,0.011
671185.577,-113.770,-361.328,-33.691,52.734,671185.625,-0.014
671185.580,-122.559,-250.488,-34.180,49.316,671185.625,-0.011
671185.584,-30.273,-229.492,-34.180,71.289,671185.625,-0.007
671185.588,2.930,-367.676,-33.203,88.379,671185.625,-0.003
671185.592,-70.312,-588.379,-30.273,81.055,671185.625,0.001
671185.596,-102.051,-597.168,-40.039,66.895,671185.625,0.005
671185.600,-12.695,-593.750,-36.621,81.543,671185.625,0.009
671185.604,68.359,-506.348,-27.344,91.309,671185.625,0.013
671185.608,24.414,-550.781,-28.809,77.637,671185.625,0.017
671185.612,-42.480,-620.117,-27.344,61.523,671185.625,0.021
671185.616,3.418,-337.891,-31.738,63.965,671185.625,0.025
671185.620,87.891,-206.055,-35.645,85.938,671185.625,0.029
671185.623,60.059,-259.766,-34.668,81.055,671185.625,0.008
671185.627,-24.414,-234.375,-34.668,60.547,671185.625,0.012
671185.631,-0.488,-524.902,-32.715,67.871,671185.625,0.016
671185.635,95.215,-383.789,-30.273,81.543,671185.625,0.020
671185.639,99.609,-264.160,-30.762,79.102,671185.625,0.024
671185.643,22.461,-613.281,-35.156,62.012,671185.625,0.027
671185.647,19.531,-751.465,-31.250,58.105,671185.688,-0.031
671185.651,110.840,-812.500,-25.391,75.195,671185.688,-0.027
671185.655,146.973,-527.832,-30.273,73.242,671185.688,-0.023
671185.659,64.453,-247.559,-30.762,54.199,671185.688,-0.019
671185.663,-2.441,-522.461,-29.785,47.363,671185.688,-0.016
671185.666,51.270,-512.207,-30.762,58.105,671185.688,-0.012
671185.670,114.746,-603.516,-28.320,82.031,671185.688,-0.017
671185.674,58.105,-522.949,-24.414,63.477,671185.688,-0.013
671185.678,-24.902,-319.336,-20.020,41.992,671185.688,-0.009
671185.682,6.348,-448.242,-19.531,58.594,671185.688,-0.005
671185.686,91.797,-360.840,-23.926,71.289,671185.688,-0.002
671185.690,75.684,-755.371,-25.391,79.102,671185.688,0.002
671185.694,-3.418,-773.438,-25.879,54.688,671185.688,0.006
671185.698,20.996,-351.074,-24.902,41.016,671185.688,0.010
671185.702,129.395,-306.152,-22.949,69.336,671185.688,0.014
671185.705,138.184,-231.934,-29.785,68.359,671185.688,0.018
671185.709,32.227,-544.434,-17.578,62.012,671185.688,0.022
671185.713,0.977,-1000.000,-9.766,74.707,671185.688,0.026
671185.717,91.309,-650.879,-19.531,63.477,671185.688,0.023
671185.721,132.324,-445.312,-23.438,62.012,671185.688,0.027
671185.725,69.336,-456.543,-28.320,48.340,671185.688,0.031
671185.729,1.953,-451.172,-25.391,39.062,671185.750,-0.028
671185.733,42.969,-541.504,-21.973,53.711,671185.750,-0.024
671185.737,121.582,-566.895,-24.902,65.430,671185.750,-0.020
671185.741,86.426,-764.160,-25.879,63.965,671185.750,-0.016
671185.745,1.953,-676.758,-26.367,38.574,671185.750,-0.012
671185.748,33.203,-687.988,-22.949,40.527,671185.750,-0.008
671185.752,127.930,-855.957,-15.137,69.336,671185.750,-0.004
671185.756,141.602,-610.840,-11.719,73.730,671185.750,-0.000
671185.760,63.477,-325.684,-20.508,51.270,671185.750,0.004
671185.764,27.344,-175.293,-32.715,3.418,671185.750,0.001
671185.768,81.055,-299.805,-41.504,-5.859,671185.750,0.004
671185.772,88.379,-588.867,-33.691,21.484,671185.750,0.008
671185.776,-6.348,-359.863,-24.414,-3.418,671185.750,0.012
671185.780,-71.289,-372.070,-30.762,-34.668,671185.750,0.016
671185.784,-18.555,-642.090,-32.715,-15.137,671185.750,0.020
671185.788,27.344,-724.609,-37.598,-3.418,671185.750,0.024
671185.791,-22.461,-890.625,-34.180,5.371,671185.750,0.028
671185.795,-73.242,-684.082,-32.227,-5.371,671185.812,-0.031
671185.799,5.371,-273.926,-26.855,2.441,671185.812,-0.027
671185.803,107.422,-183.594,-21.973,28.809,671185.812,-0.023
671185.807,74.707,-261.230,-24.414,24.414,671185.812,-0.019
671185.811,-10.742,-472.656,-22.949,18.066,671185.812,-0.001
671185.815,10.742,-367.676,-16.602,27.832,671185.812,0.003
671185.819,104.492,-245.605,-14.648,47.363,671185.812,0.007
671185.823,98.145,-231.934,-19.043,42.969,671185.812,0.011
671185.827,-11.230,-259.277,-17.090,20.996,671185.812,0.015
671185.830,-45.410,-642.090,-20.508,22.949,671185.812,0.018
671185.834,24.414,-866.211,-20.508,41.992,671185.812,0.022
671185.838,48.828,-791.504,-15.137,43.945,671185.812,0.026
671185.842,-28.320,-724.609,-19.531,18.555,671185.812,0.030
671185.846,-73.730,-386.230,-20.996,-3.906,671185.875,-0.028
671185.850,-16.602,-647.461,-19.531,33.691,671185.875,-0.025
671185.854,37.598,-867.188,-23.438,44.922,671185.875,-0.021
671185.858,-7.324,-436.035,-31.250,7.812,671185.875,-0.025
671185.862,-71.289,-318.359,-27.344,-7.324,671185.875,-0.021
671185.866,-17.090,-260.254,-19.043,8.789,671185.875,-0.017
671185.870,60.547,-494.141,-18.555,35.645,671185.875,-0.013
671185.873,14.648,-571.289,-21.973,29.297,671185.875,-0.009
671185.877,-88.867,-550.293,-21.484,18.066,671185.875,-0.005
671185.881,-90.820,-700.684,-20.020,18.555,671185.875,-0.001
671185.885,-6.348,-352.051,-21.484,27.832,671185.875,0.003
671185.889,0.977,-480.957,-24.414,47.363,671185.875,0.007
671185.893,-86.426,-957.520,-19.531,39.551,671185.875,0.010
671185.897,-84.961,-740.723,-14.160,16.113,671185.875,0.014
671185.901,9.766,-475.586,-18.066,28.809,671185.875,0.018
671185.905,60.547,-226.562,-18.555,31.250,671185.875,0.015
671185.909,7.324,-401.367,-13.184,20.508,671185.875,0.019
671185.913,-34.668,-637.695,-7.812,17.578,671185.875,0.023
671185.916,37.598,-304.688,-7.812,21.973,671185.875,0.027
671185.920,102.051,-223.145,-10.742,40.527,671185.875,0.031
671185.924,40.039,-571.289,-12.207,31.738,671185.938,-0.028
671185.928,-66.406,-781.738,-11.230,15.625,671185.938,-0.024
671185.932,-58.105,-922.852,-11.719,32.715,671185.938,-0.020
671185.936,38.086,-636.230,-15.137,34.668,671185.938,-0.016
671185.940,24.414,-290.527,-15.625,25.879,671185.938,-0.012
671185.944,-73.730,-214.355,-16.113,6.348,671185.938,-0.008
671185.948,-62.500,-283.691,-18.555,6.348,671185.938,-0.004
671185.952,43.945,-501.953,-19.043,30.762,671185.938,0.013
671185.955,61.035,-513.184,-22.949,31.250,671185.938,0.017
671185.959,-36.621,-500.977,-17.578,15.137,671185.938,0.021
671185.963,-53.711,-332.031,-17.090,10.254,671185.938,0.025
671185.967,35.645,-286.621,-20.020,34.668,671185.938,0.029
671185.971,76.172,-757.324,-12.207,58.105,671186.000,-0.030
671185.975,7.812,-827.148,-14.648,39.062,671186.000,-0.026
671185.979,-57.617,-387.207,-20.996,9.766,671186.000,-0.022
671185.983,-3.418,-285.645,-20.996,19.043,671186.000,-0.018
671185.987,75.195,-309.082,-21.484,45.898,671186.000,-0.014
671185.991,18.555,-685.547,-17.090,43.945,671186.000,-0.010
671185.995,-78.613,-683.594,-20.996,13.184,671186.000,-0.006
671185.998,-48.828,-289.551,-28.320,12.695,671186.000,-0.009
671186.002,45.410,-302.246,-25.879,43.457,671186.000,-0.005
671186.006,39.062,-355.469,-24.414,40.039,671186.000,-0.001
671186.010,-53.223,-650.391,-17.578,25.879,671186.000,0.003
671186.014,-50.293,-805.176,-19.531,28.320,671186.000,0.006
671186.018,41.016,-764.648,-26.855,43.457,671186.000,0.010
671186.022,56.641,-865.723,-21.973,48.828,671186.000,0.014
671186.026,-23.926,-780.762,-26.367,21.973,671186.000,0.018
671186.030,-65.430,-878.906,-21.484,29.297,671186.000,0.022
671186.034,1.953,-933.105,-16.113,51.270,671186.000,0.026
671186.038,54.199,-462.402,-27.344,38.086,671186.000,0.030
671186.041,-7.812,-253.906,-28.809,27.344,671186.062,-0.029
671186.045,-78.613,-253.906,-25.391,6.836,671186.062,-0.030
671186.049,-31.250,-519.531,-27.832,12.695,671186.062,-0.026
671186.053,64.453,-625.488,-28.809,30.273,671186.062,-0.022
671186.057,40.039,-295.410,-29.785,16.602,671186.062,-0.018
671186.061,-51.758,-311.035,-28.809,1.465,671186.062,-0.015
671186.065,-26.367,-547.363,-29.785,10.742,671186.062,-0.011
671186.069,66.406,-852.051,-27.344,43.457,671186.062,-0.007
671186.073,62.500,-985.352,-25.879,51.758,671186.062,-0.003
671186.077,-22.461,-666.504,-34.668,8.789,671186.062,0.001
671186.080,-22.461,-336.914,-30.762,3.906,671186.062,0.005
671186.084,82.031,-230.957,-18.555,29.297,671186.062,0.009
671186.088,116.699,-491.211,-17.090,36.133,671186.062,0.013
671186.092,44.922,-758.301,-15.137,24.414,671186.062,0.028
671186.096,16.602,-401.367,-13.672,6.348,671186.125,-0.031
671186.100,95.703,-369.629,-18.066,23.438,671186.125,-0.027
671186.104,163.574,-456.543,-18.555,43.945,671186.125,-0.023
671186.108,105.957,-505.859,-15.137,32.715,671186.125,-0.019
671186.112,18.066,-818.848,-14.160,23.926,671186.125,-0.015
671186.116,52.734,-841.309,-23.438,26.367,671186.125,-0.011
671186.120,135.254,-803.223,-31.738,40.527,671186.125,-0.007
671186.123,99.609,-551.270,-32.715,27.344,671186.125,-0.003
671186.127,1.465,-432.129,-33.691,9.277,671186.125,0.001
671186.131,15.625,-834.473,-28.320,25.879,671186.125,0.005
671186.135,115.234,-711.914,-33.691,32.227,671186.125,0.009
671186.139,115.234,-407.715,-38.574,28.320,671186.125,0.005
671186.143,13.184,-405.273,-23.438,19.531,671186.125,0.009
671186.147,-10.742,-396.484,-22.461,5.859,671186.125,0.013
671186.151,84.473,-554.688,-25.391,21.973,671186.125,0.017
671186.155,130.859,-482.422,-25.391,33.691,671186.125,0.021
671186.159,44.434,-655.762,-27.832,18.066,671186.125,0.025
671186.163,-11.719,-731.445,-23.926,16.113,671186.125,0.029
671186.166,69.336,-382.812,-24.414,20.508,671186.188,-0.030
671186.170,141.113,-719.238,-23.438,51.270,671186.188,-0.026
671186.174,94.727,-895.020,-20.508,51.758,671186.188,-0.022
671186.178,28.320,-495.117,-30.273,7.324,671186.188,-0.018
671186.182,67.383,-360.840,-41.504,15.625,671186.188,-0.014
671186.186,157.227,-346.191,-41.016,41.016,671186.188,0.003
671186.190,137.207,-739.746,-42.969,43.945,671186.188,0.007
671186.194,55.176,-729.492,-53.711,19.531,671186.188,0.011
671186.198,73.242,-312.988,-51.758,13.672,671186.188,0.015
671186.202,158.691,-303.223,-38.086,36.133,671186.188,0.019
671186.205,159.180,-595.215,-35.645,44.922,671186.188,0.023
671186.209,55.176,-955.078,-32.227,41.504,671186.188,0.026
671186.213,-1.953,-935.547,-37.598,37.109,671186.188,0.030
671186.217,61.035,-475.098,-52.246,28.809,671186.250,-0.028
671186.221,92.285,-202.148,-56.641,29.297,671186.250,-0.024
671186.225,8.301,-208.984,-51.270,18.066,671186.250,-0.020
671186.229,-63.477,-531.738,-39.062,12.207,671186.250,-0.016
671186.233,6.836,-585.938,-39.062,33.203,671186.250,-0.020
671186.237,102.539,-275.391,-38.574,50.781,671186.250,-0.016
671186.241,70.801,-376.953,-38.574,37.109,671186.250,-0.012
671186.245,-8.301,-384.766,-42.480,8.789,671186.250,-0.008
671186.248,21.484,-500.000,-39.062,21.973,671186.250,-0.004
671186.252,118.164,-788.574,-31.250,46.875,671186.250,-0.000
671186.256,103.027,-812.012,-32.227,24.414,671186.250,0.004
671186.260,-0.488,-522.461,-35.645,-11.719,671186.250,0.008
671186.264,-20.020,-266.113,-34.668,-20.020,671186.250,0.012
671186.268,49.316,-444.824,-32.715,3.906,671186.250,0.016
671186.272,50.781,-702.148,-35.156,10.254,671186.250,0.019
671186.276,-50.293,-491.699,-30.273,-15.137,671186.250,0.023
671186.280,-115.723,-299.316,-20.508,-20.020,671186.250,0.021
671186.284,-68.848,-307.129,-21.973,-1.953,671186.250,0.024
671186.288,-27.832,-434.082,-20.508,17.578,671186.250,0.028
671186.291,-105.469,-761.230,-16.602,22.461,671186.312,-0.030
671186.295,-163.086,-650.391,-26.855,-4.395,671186.312,-0.026
671186.299,-81.055,-627.930,-34.180,-2.441,671186.312,-0.022
671186.303,21.973,-803.223,-29.297,28.320,671186.312,-0.018
671186.307,8.301,-753.906,-28.320,21.973,671186.312,-0.015
671186.311,-72.754,-933.594,-25.879,18.555,671186.312,-0.011
671186.315,-54.199,-785.156,-24.414,20.996,671186.312,-0.007
671186.319,30.273,-288.086,-30.273,20.508,671186.312,-0.003
671186.323,13.184,-277.344,-33.691,23.926,671186.312,0.001
671186.327,-85.938,-359.375,-28.320,10.254,671186.312,0.018
671186.330,-107.422,-437.500,-25.879,14.160,671186.312,0.022
671186.334,-24.902,-385.254,-28.320,24.414,671186.312,0.026
671186.338,15.137,-260.254,-28.809,26.367,671186.312,0.030
671186.342,-43.457,-354.004,-28.809,14.648,671186.375,-0.029
671186.346,-76.172,-572.266,-23.438,10.254,671186.375,-0.025
671186.350,9.277,-822.266,-17.090,27.344,671186.375,-0.021
671186.354,79.102,-653.809,-20.020,31.250,671186.375,-0.017
671186.358,26.367,-375.488,-18.066,15.625,671186.375,-0.013
671186.362,-35.645,-296.875,-20.508,-3.418,671186.375,-0.009
671186.366,5.371,-367.676,-27.832,0.000,671186.375,-0.005
671186.370,77.148,-807.617,-21.973,27.344,671186.375,-0.001
671186.373,42.969,-778.320,-21.973,13.184,671186.375,-0.005
671186.377,-59.082,-370.605,-25.391,-19.043,671186.375,-0.001
671186.381,-48.828,-345.703,-29.785,-12.695,671186.375,0.003
671186.385,50.781,-283.203,-32.227,6.348,671186.375,0.007
671186.389,46.875,-522.461,-20.996,20.996,671186.375,0.011
671186.393,-37.598,-953.613,-15.625,17.578,671186.375,0.015
671186.397,-39.551,-829.590,-18.066,2.441,671186.375,0.019
671186.401,61.523,-751.465,-13.672,19.043,671186.375,0.023
671186.405,112.305,-465.820,-15.625,20.996,671186.375,0.027
671186.409,41.504,-439.453,-18.066,10.742,671186.375,0.031
671186.413,-20.508,-927.246,-12.695,20.996,671186.438,-0.028
671186.416,43.945,-639.648,-15.625,22.949,671186.438,-0.024
671186.420,114.746,-247.070,-23.926,36.621,671186.438,-0.027
671186.424,59.082,-422.852,-23.438,35.156,671186.438,-0.023
671186.428,-24.902,-701.660,-19.043,15.625,671186.438,-0.019
671186.432,15.137,-616.211,-28.809,21.973,671186.438,-0.015
671186.436,112.305,-321.289,-25.879,51.270,671186.438,-0.011
671186.440,95.215,-590.820,-13.184,62.012,671186.438,-0.008
671186.444,11.719,-640.625,-20.508,35.156,671186.438,-0.004
671186.448,20.508,-380.371,-21.484,27.344,671186.438,0.000
671186.452,105.957,-776.855,-9.277,60.547,671186.438,0.004
671186.455,113.770,-738.770,-14.160,51.270,671186.438,0.008
671186.459,19.043,-390.137,-18.066,14.648,671186.438,0.012
671186.463,-6.836,-349.121,-18.066,11.230,671186.438,0.016
671186.467,73.730,-348.145,-23.926,27.344,671186.500,-0.030
671186.471,113.770,-594.238,-25.391,40.527,671186.500,-0.026
671186.475,44.434,-554.688,-22.461,24.902,671186.500,-0.022
671186.479,-24.414,-356.934,-18.066,5.859,671186.500,-0.018
671186.483,30.273,-479.004,-16.113,22.949,671186.500,-0.014
671186.487,97.168,-689.453,-20.508,37.109,671186.500,-0.010
671186.491,31.250,-892.578,-15.137,43.457,671186.500,-0.006
671186.495,-67.871,-956.055,-12.695,25.879,671186.500,-0.002
671186.498,-38.086,-567.871,-19.043,2.930,671186.500,0.002
671186.502,53.711,-319.336,-25.391,14.160,671186.500,0.006
671186.506,52.734,-282.715,-31.738,12.695,671186.500,0.010
671186.510,-23.438,-558.105,-26.367,1.953,671186.500,0.013
671186.514,-16.602,-514.160,-24.902,-5.371,671186.500,0.010
671186.518,75.195,-224.121,-27.832,9.277,671186.500,0.014
671186.522,98.633,-470.703,-22.949,23.438,671186.500,0.018
671186.526,14.648,-461.914,-26.855,4.883,671186.500,0.022
671186.530,-16.113,-538.086,-30.762,-0.977,671186.500,0.026
671186.534,69.336,-857.422,-25.879,31.250,671186.500,0.030
671186.538,123.047,-669.434,-22.461,42.969,671186.562,-0.029
671186.541,50.781,-589.355,-20.508,27.344,671186.562,-0.025
671186.545,-38.086,-544.434,-21.484,13.184,671186.562,-0.021
671186.549,-11.719,-622.070,-20.020,32.715,671186.562,-0.017
671186.553,61.035,-888.184,-27.344,55.176,671186.562,-0.013
671186.557,31.738,-492.676,-29.297,27.832,671186.562,-0.009
671186.561,-53.711,-327.148,-16.113,7.812,671186.562,-0.011
671186.565,-23.438,-244.141,-13.184,10.742,671186.562,-0.007
671186.569,73.242,-446.289,-11.719,40.527,671186.562,-0.003
671186.573,68.359,-597.168,-10.742,43.945,671186.562,0.001
671186.577,-20.996,-414.062,-11.719,15.625,671186.562,0.005
671186.580,-30.273,-687.500,-12.207,23.926,671186.562,0.009
671186.584,39.062,-784.668,-7.812,38.574,671186.562,0.013
671186.588,55.664,-829.102,-7.324,48.828,671186.562,0.017
671186.592,-41.504,-930.176,-10.742,38.086,671186.562,0.021
671186.596,-85.938,-578.613,-15.137,9.277,671186.562,0.024
671186.600,-8.789,-393.555,-12.695,22.949,671186.562,0.028
671186.604,44.922,-448.242,-11.230,35.645,671186.625,-0.030
671186.608,1.953,-402.344,-18.555,21.973,671186.625,-0.015
671186.612,-47.852,-504.883,-21.484,21.973,671186.625,-0.011
671186.616,14.160,-359.375,-14.160,34.180,671186.625,-0.007
671186.620,94.238,-296.875,-6.836,38.574,671186.625,-0.003
671186.623,61.523,-381.836,-14.160,30.762,671186.625,0.001
671186.627,-41.016,-655.273,-11.719,13.184,671186.625,0.005
671186.631,-37.598,-956.055,-6.348,23.438,671186.625,0.009
671186.635,52.246,-729.492,-19.531,23.926,671186.625,0.013
671186.639,44.434,-396.973,-21.973,8.789,671186.625,0.017
671186.643,-63.965,-315.430,-17.578,-8.789,671186.625,0.021
671186.647,-90.332,-307.129,-24.414,-16.113,671186.625,0.024
671186.651,10.742,-540.039,-21.484,24.902,671186.625,0.028
671186.655,64.453,-429.688,-17.090,36.133,671186.625,0.026
671186.659,-7.324,-397.461,-20.996,17.090,671186.625,0.029
671186.663,-47.363,-544.922,-21.484,5.859,671186.688,-0.029
671186.666,32.715,-356.445,-17.090,20.996,671186.688,-0.025
671186.670,107.422,-591.309,-11.230,52.734,671186.688,-0.021
671186.674,57.617,-874.512,-14.160,38.574,671186.688,-0.017
671186.678,-21.484,-824.219,-23.438,0.488,671186.688,-0.014
671186.682,18.066,-799.316,-26.855,5.371,671186.688,-0.010
671186.686,101.562,-499.023,-25.879,24.414,671186.688,-0.006
671186.690,69.336,-666.016,-23.926,41.992,671186.688,-0.002
671186.694,-26.855,-884.277,-18.066,38.086,671186.688,0.002
671186.698,-12.695,-432.617,-13.184,19.531,671186.688,0.006
671186.702,83.984,-219.238,-17.090,34.668,671186.688,0.023
671186.706,100.098,-150.879,-22.461,36.621,671186.688,0.027
671186.709,4.395,-489.258,-20.020,28.320,671186.688,0.031
671186.713,-19.043,-627.930,-21.973,21.484,671186.750,-0.028
671186.717,71.777,-472.168,-21.484,34.180,671186.750,-0.024
671186.721,109.375,-700.684,-21.973,50.293,671186.750,-0.020
671186.725,38.574,-809.570,-21.484,37.598,671186.750,-0.016
671186.729,-17.090,-895.508,-17.090,19.531,671186.750,-0.012
671186.733,46.387,-845.703,-20.020,26.367,671186.750,-0.008
671186.737,131.348,-533.691,-20.508,38.574,671186.750,-0.004
671186.741,89.355,-386.230,-19.531,21.484,671186.750,-0.001
671186.745,-5.859,-286.621,-19.043,2.930,671186.750,0.003
671186.748,23.926,-463.867,-22.949,22.461,671186.750,0.001
671186.752,105.469,-742.676,-29.297,33.691,671186.750,0.005
671186.756,92.285,-548.340,-24.902,15.137,671186.750,0.009
671186.760,7.812,-437.988,-22.461,0.977,671186.750,0.013
671186.764,-0.977,-400.879,-24.902,4.883,671186.750,0.017
671186.768,81.055,-633.789,-20.996,28.809,671186.750,0.020
671186.772,101.074,-951.172,-21.484,41.016,671186.750,0.024
671186.776,13.184,-945.801,-33.203,19.531,671186.750,0.028
671186.780,-41.016,-725.586,-32.227,1.953,671186.812,-0.030
671186.784,31.250,-409.668,-21.973,16.113,671186.812,-0.026
671186.788,99.121,-326.660,-24.414,37.598,671186.812,-0.023
671186.791,37.598,-786.621,-20.996,50.293,671186.812,-0.019
671186.795,-34.180,-783.203,-19.043,23.438,671186.812,-0.022
671186.799,32.715,-318.848,-19.043,18.066,671186.812,-0.018
671186.803,124.512,-227.051,-18.555,42.480,671186.812,-0.014
671186.807,94.238,-269.531,-24.902,37.109,671186.812,-0.010
671186.811,14.648,-567.383,-25.879,25.391,671186.812,-0.006
671186.815,28.320,-791.016,-20.508,30.762,671186.812,-0.002
671186.819,103.516,-641.602,-23.438,42.969,671186.812,0.002
671186.823,92.285,-435.547,-25.879,41.016,671186.812,0.006
671186.827,-13.672,-339.844,-27.832,19.531,671186.812,0.009
671186.831,-41.016,-681.641,-28.320,32.227,671186.812,0.013
671186.834,44.434,-902.832,-26.367,55.176,671186.812,0.017
671186.838,78.613,-635.254,-32.715,39.062,671186.812,0.021
671186.842,-3.906,-434.570,-36.133,17.578,671186.812,0.018
671186.846,-49.805,-285.156,-33.203,5.371,671186.812,0.022
671186.850,20.996,-592.773,-24.414,23.438,671186.812,0.026
671186.854,91.797,-630.371,-22.949,33.203,671186.812,0.030
671186.858,43.945,-373.047,-29.785,22.461,671186.875,-0.029
671186.862,-42.969,-607.910,-30.273,9.277,671186.875,-0.025
671186.866,-9.766,-718.750,-35.156,6.836,671186.875,-0.021
671186.870,76.660,-851.562,-34.180,35.645,671186.875,-0.017
671186.873,45.898,-899.902,-26.855,40.039,671186.875,-0.013
671186.877,-35.156,-486.328,-32.227,-8.301,671186.875,-0.009
671186.881,-0.977,-317.383,-34.180,-10.742,671186.875,-0.005
671186.885,101.074,-287.598,-33.203,13.672,671186.875,-0.001
671186.889,95.703,-524.414,-34.668,22.461,671186.875,0.016
671186.893,0.977,-857.910,-34.668,14.648,671186.875,0.020
671186.897,-19.531,-712.402,-37.598,-0.488,671186.875,0.024
671186.901,51.270,-416.992,-41.992,9.277,671186.875,0.027
671186.905,86.426,-331.543,-40.527,29.297,671186.938,-0.031
671186.909,6.836,-716.309,-34.668,28.320,671186.938,-0.027
671186.913,-54.199,-982.910,-40.527,19.531,671186.938,-0.023
671186.916,12.695,-583.496,-54.688,12.207,671186.938,-0.019
671186.920,71.777,-285.645,-56.152,24.902,671186.938,-0.015
671186.924,5.859,-269.043,-52.246,24.414,671186.938,-0.012
671186.928,-86.914,-457.520,-41.504,18.555,671186.938,-0.008
671186.932,-53.711,-632.324,-30.762,28.320,671186.938,-0.004
671186.936,42.969,-407.715,-36.621,39.062,671186.938,-0.007
671186.940,20.020,-343.262,-35.156,35.156,671186.938,-0.003
671186.944,-67.871,-370.117,-27.832,10.742,671186.938,0.001
671186.948,-41.992,-524.414,-27.344,11.230,671186.938,0.005
671186.952,67.383,-713.379,-28.320,26.855,671186.938,0.009
671186.956,95.215,-774.414,-28.320,27.832,671186.938,0.013
671186.959,13.672,-780.762,-23.438,6.348,671186.938,0.017
671186.963,-19.531,-738.770,-27.832,-5.371,671186.938,0.021
671186.967,68.359,-668.457,-22.949,18.066,671186.938,0.024
671186.971,97.168,-871.582,-19.043,43.945,671186.938,0.028
671186.975,10.254,-764.648,-24.414,24.414,671187.000,-0.030
671186.979,-49.316,-286.621,-19.531,-7.324,671187.000,-0.026
671186.983,-4.395,-189.453,-14.160,10.254,671187.000,-0.030
671186.987,59.082,-238.281,-15.625,33.203,671187.000,-0.026
671186.991,-7.324,-548.828,-12.207,24.414,671187.000,-0.022
671186.995,-127.441,-485.352,-11.230,2.930,671187.000,-0.018
671186.998,-119.629,-226.562,-13.184,11.719,671187.000,-0.014
671187.002,-35.156,-516.602,-14.160,41.504,671187.000,-0.010
671187.006,-42.480,-725.098,-19.531,41.504,671187.000,-0.006
671187.010,-133.301,-876.953,-20.996,29.297,671187.000,-0.002
671187.014,-127.930,-821.777,-15.137,23.438,671187.000,0.001
671187.018,-10.254,-331.543,-19.531,18.066,671187.000,0.005
671187.022,33.691,-240.723,-29.297,26.367,671187.000,0.009
671187.026,-48.828,-219.727,-30.762,12.207,671187.000,0.013
671187.030,-96.191,-492.188,-29.297,4.883,671187.000,0.030
671187.034,-20.508,-506.348,-31.738,15.625,671187.062,-0.028
671187.038,37.109,-235.840,-29.297,27.344,671187.062,-0.024
671187.041,-25.391,-307.617,-29.785,13.184,671187.062,-0.020
671187.045,-91.797,-300.293,-27.832,-0.488,671187.062,-0.016
671187.049,-51.270,-687.500,-24.414,28.320,671187.062,-0.013
671187.053,16.113,-957.031,-24.902,43.457,671187.062,-0.009
671187.057,-1.953,-781.738,-28.320,18.066,671187.062,-0.005
671187.061,-75.684,-514.160,-29.785,-8.301,671187.062,-0.001
671187.065,-34.180,-166.016,-31.738,-8.301,671187.062,0.003
671187.069,74.219,-448.730,-32.227,28.320,671187.062,0.007
671187.073,68.848,-800.781,-36.133,33.691,671187.062,0.011
671187.077,-24.902,-446.777,-31.738,3.906,671187.062,0.009
671187.081,-43.945,-292.480,-22.461,3.906,671187.062,0.013
671187.084,36.133,-220.703,-21.973,19.043,671187.062,0.017
671187.088,52.734,-460.449,-23.438,29.785,671187.062,0.021
671187.092,-39.551,-698.730,-28.320,22.461,671187.062,0.025
671187.096,-96.191,-682.129,-31.250,6.348,671187.062,0.029
671187.100,-19.531,-649.902,-28.809,7.812,671187.125,-0.030
671187.104,62.012,-281.738,-22.949,26.855,671187.125,-0.026
671187.108,9.277,-331.543,-19.043,31.738,671187.125,-0.022
671187.112,-62.988,-712.891,-23.926,25.391,671187.125,-0.018
671187.116,-8.789,-483.398,-27.344,30.273,671187.125,-0.014
671187.120,86.426,-254.883,-33.203,43.457,671187.125,-0.010
671187.123,66.406,-324.707,-41.016,33.691,671187.125,0.005
671187.127,-23.926,-458.496,-34.668,15.625,671187.125,0.009
671187.131,-23.926,-763.672,-29.297,24.902,671187.125,0.013
671187.135,68.359,-629.395,-28.809,40.039,671187.125,0.017
671187.139,68.848,-378.906,-31.250,36.133,671187.125,0.021
671187.143,-28.320,-611.328,-32.227,16.113,671187.125,0.025
671187.147,-42.480,-819.336,-31.250,12.207,671187.125,0.029
671187.151,45.410,-895.996,-29.297,41.992,671187.188,-0.030
671187.155,96.680,-943.848,-31.250,48.340,671187.188,-0.026
671187.159,46.387,-671.875,-31.738,18.066,671187.188,-0.022
671187.163,-14.160,-315.430,-37.598,-1.953,671187.188,-0.018
671187.166,56.641,-286.133,-41.992,9.277,671187.188,-0.014
671187.170,135.254,-587.891,-36.133,31.250,671187.188,-0.017
671187.174,83.008,-572.266,-35.645,16.113,671187.188,-0.013
671187.178,6.836,-327.148,-39.062,-12.207,671187.188,-0.009
671187.182,55.664,-314.941,-39.551,2.441,671187.188,-0.005
671187.186,161.133,-385.254,-39.062,36.621,671187.188,-0.001
671187.190,145.996,-708.984,-41.992,42.480,671187.188,0.002
671187.194,52.246,-947.754,-44.922,18.066,671187.188,0.006
671187.198,37.598,-687.500,-46.387,11.719,671187.188,0.010
671187.202,103.027,-370.605,-47.852,32.227,671187.188,0.014
671187.206,103.027,-309.082,-48.828,35.645,671187.188,0.018
671187.209,0.977,-666.992,-41.992,35.156,671187.188,0.022
671187.213,-21.973,-910.156,-28.809,39.551,671187.188,0.026
671187.217,87.402,-470.703,-28.320,34.180,671187.188,0.023
671187.221,145.020,-293.945,-27.344,42.969,671187.188,0.027
671187.225,87.891,-339.355,-22.949,28.809,671187.188,0.031
671187.229,17.578,-543.945,-19.043,14.648,671187.250,-0.028
671187.233,58.105,-688.965,-18.066,28.320,671187.250,-0.024
671187.237,138.184,-637.695,-19.043,34.668,671187.250,-0.020
671187.241,106.934,-813.965,-18.066,16.602,671187.250,-0.016
671187.245,21.973,-813.477,-14.160,-11.719,671187.250,-0.012
671187.248,39.062,-784.180,-12.207,-2.441,671187.250,-0.008
671187.252,109.375,-910.645,-12.695,31.738,671187.250,-0.004
671187.256,80.078,-589.355,-17.090,9.766,671187.250,-0.001
671187.260,-31.250,-308.105,-19.531,-18.555,671187.250,0.003
671187.264,-48.828,-239.258,-18.066,-12.695,671187.250,0.001
671187.268,34.180,-345.703,-12.695,15.625,671187.250,0.004
671187.272,61.035,-623.047,-14.160,31.250,671187.250,0.008
671187.276,-13.672,-378.906,-10.742,5.371,671187.250,0.012
671187.280,-43.945,-319.824,-6.836,-0.488,671187.250,0.016
671187.284,40.039,-683.105,-11.230,27.344,671187.250,0.020
671187.288,97.168,-746.582,-11.230,35.156,671187.250,0.024
671187.291,32.715,-887.207,-9.766,39.062,671187.250,0.028
671187.295,-51.270,-779.297,-14.160,11.719,671187.312,-0.031
671187.299,-9.277,-327.637,-16.113,-2.930,671187.312,-0.027
671187.303,71.777,-277.832,-11.719,29.297,671187.312,-0.023
671187.307,36.133,-571.289,-8.789,40.039,671187.312,-0.019
671187.311,-58.105,-717.773,-7.812,21.973,671187.312,-0.002
671187.315,-33.691,-390.625,-10.742,11.230,671187.312,0.002
671187.319,72.754,-253.418,-9.277,35.156,671187.312,0.006
671187.323,92.773,-348.633,-7.324,46.875,671187.312,0.010
671187.327,26.855,-278.809,-10.254,28.809,671187.312,0.013
671187.331,18.555,-606.934,-12.695,27.832,671187.312,0.017
671187.334,107.422,-885.742,-13.672,43.457,671187.312,0.021
671187.338,143.066,-698.730,-24.414,42.480,671187.312,0.025
671187.342,45.898,-506.348,-21.973,15.137,671187.312,0.029
671187.346,-21.484,-239.258,-11.719,-6.836,671187.375,-0.030
671187.350,38.574,-625.488,-11.230,24.414,671187.375,-0.026
671187.354,87.402,-836.426,-13.184,38.574,671187.375,-0.022
671187.358,16.602,-325.195,-17.578,10.742,671187.375,-0.025
671187.362,-69.336,-316.406,-20.020,-1.465,671187.375,-0.021
671187.366,-18.066,-550.781,-19.531,19.043,671187.375,-0.017
671187.370,74.219,-761.230,-19.531,35.645,671187.375,-0.013
671187.373,59.082,-654.785,-15.625,22.949,671187.375,-0.009
671187.377,-31.250,-704.590,-16.602,2.930,671187.375,-0.005
671187.381,-19.043,-767.578,-22.949,-2.441,671187.375,-0.001
671187.385,79.102,-333.496,-29.297,7.812,671187.375,0.003
671187.389,73.730,-518.066,-22.949,25.879,671187.375,0.007
671187.393,-19.531,-931.641,-18.066,24.902,671187.375,0.010
671187.397,-43.457,-488.281,-25.391,2.441,671187.375,0.014
671187.401,36.621,-331.055,-25.879,21.484,671187.375,0.018
671187.405,75.195,-354.492,-26.367,28.320,671187.375,0.015
671187.409,-15.137,-476.562,-25.391,9.277,671187.375,0.019
671187.413,-72.754,-653.320,-24.414,3.418,671187.375,0.023
671187.416,4.883,-350.586,-31.250,11.230,671187.375,0.027
671187.420,84.473,-354.980,-30.273,28.320,671187.375,0.031
671187.424,43.457,-676.270,-22.949,38.574,671187.438,-0.028
671187.428,-42.969,-806.641,-22.949,24.414,671187.438,-0.024
671187.432,-12.695,-932.129,-27.344,35.156,671187.438,-0.020
